sample_index,EXG Channel 0,EXG Channel 1,EXG Channel 2,EXG Channel 3,EXG Channel 4,EXG Channel 5,EXG Channel 6,EXG Channel 7,thumb_ext_angle,index_ext_angle,middle_ext_angle,ring_ext_angle,pinky_ext_angle,hand_state
0,3884.6661310990016,11457.303042090303,-4679.5388674186315,12967.498656213123,0.0,0.0,0.0,0.0,152.41,161.24,166.31,162.83,140.61,Open
1,3859.945101731432,11461.818094470274,-4729.763237209706,13185.450516396824,0.0,0.0,0.0,0.0,152.41,161.24,166.31,162.83,140.61,Open
2,3889.739977090356,11531.242612748458,-4861.705584729384,13554.410762120577,0.0,0.0,0.0,0.0,152.41,161.24,166.31,162.83,140.61,Open
3,0.0,0.0,0.0,0.0,0.0,0.0,0.0,0.0,152.39,160.58,165.33,161.77,138.95,Open
4,1054.912931312672,6135.017411114862,-5668.827077010522,12735.822824933866,0.0,0.0,0.0,0.0,152.39,160.58,165.33,161.77,138.95,Open
5,804.9980765578839,6751.8361511035155,-6345.749657839497,16671.428581646513,0.0,0.0,0.0,0.0,152.39,160.58,165.33,161.77,138.95,Open
6,731.6620030000214,7342.637460546192,-6703.712845291239,17983.7442021065,0.0,0.0,0.0,0.0,152.39,160.58,165.33,161.77,138.95,Open
7,952.8325143852848,6808.095491897523,-6114.87848936063,13745.00408709098,0.0,0.0,0.0,0.0,152.39,160.58,165.33,161.77,138.95,Open
8,1224.5626717284526,6171.853085977207,-5401.991951703067,10322.102644694169,0.0,0.0,0.0,0.0,150.99,162.39,164.65,157.47,134.15,Open
9,1401.4767290922082,6547.071820148447,-5285.42760436864,12269.990118740812,0.0,0.0,0.0,0.0,150.99,162.39,164.65,157.47,134.15,Open
10,1538.0011842252236,7840.388457821425,-5637.467579539726,16576.210150266907,0.0,0.0,0.0,0.0,150.99,162.39,164.65,157.47,134.15,Open
11,1824.2152719754304,9034.798626279668,-5691.514097632658,18313.655950266835,0.0,0.0,0.0,0.0,150.99,162.39,164.65,157.47,134.15,Open
12,2290.6738270132337,8982.897875654446,-4895.791995023727,14684.313796080804,0.0,0.0,0.0,0.0,150.99,162.39,164.65,157.47,134.15,Open
13,2582.2076299438036,8540.668611606194,-4172.422489216625,11583.4339360516,0.0,0.0,0.0,0.0,150.99,162.39,164.65,157.47,134.15,Open
14,2641.1491800724484,8887.947665208301,-4172.131916538706,12953.350001972914,0.0,0.0,0.0,0.0,146.74,160.76,162.14,156.37,134.01,Open
15,2603.6876563653536,10017.470719512788,-4663.736184088729,16953.26172748348,0.0,0.0,0.0,0.0,148.26,163.01,163.55,154.92,134.28,Open
16,2695.687436543398,10991.783260319622,-4892.372178122066,18656.777579400252,0.0,0.0,0.0,0.0,148.26,163.01,163.55,154.92,134.28,Open
17,2986.170707484568,10699.757719011037,-4295.714711632098,15165.23392978119,0.0,0.0,0.0,0.0,148.26,163.01,163.55,154.92,134.28,Open
18,3086.150060433157,9959.222073462255,-3756.724745836824,12295.784031842237,0.0,0.0,0.0,0.0,148.26,163.01,163.55,154.92,134.28,Open
19,2922.7364567204067,9923.638096289407,-3905.9226400759985,13520.592572759697,0.0,0.0,0.0,0.0,148.26,163.01,163.55,154.92,134.28,Open
20,2540.633385256933,10431.357971591708,-4698.761367650195,16844.72165640851,0.0,0.0,0.0,0.0,148.26,163.01,163.55,154.92,134.28,Open
21,2190.67212232019,10566.943653457602,-5356.170875569686,17746.346324246686,0.0,0.0,0.0,0.0,148.26,163.01,163.55,154.92,134.28,Open
22,2176.121136679785,9716.549183910987,-5082.943151348013,14054.642803030349,0.0,0.0,0.0,0.0,148.26,163.01,163.55,154.92,134.28,Open
23,1072.1908297766245,3383.6964826222043,-2547.875350460452,8030.937079302917,0.0,0.0,0.0,0.0,148.26,163.01,163.55,154.92,134.28,Open
24,2255.246312051572,8861.840827684502,-4562.102802050448,12616.35275082025,0.0,0.0,0.0,0.0,148.26,163.01,163.55,154.92,134.28,Open
25,2319.239356427116,9492.204724813071,-4893.690931044928,16261.944623225289,0.0,0.0,0.0,0.0,148.26,163.01,163.55,154.92,134.28,Open
26,619.2774318787375,2671.458145553845,-3419.571032472972,4233.107475412783,0.0,0.0,0.0,0.0,148.26,163.01,163.55,154.92,134.28,Open
27,2567.0531472031057,8964.077706823076,-4647.419410636355,13960.47490364014,0.0,0.0,0.0,0.0,148.26,163.01,163.55,154.92,134.28,Open
28,2545.88604520393,7952.370697542513,-4224.83732996432,11185.751698702778,0.0,0.0,0.0,0.0,146.27,162.5,163.02,154.54,133.93,Open
29,-277.36279694590536,3623.53070062765,-5434.446684652172,7216.7300840294465,0.0,0.0,0.0,0.0,146.27,162.5,163.02,154.54,133.93,Open
30,1853.4960572118828,7862.717850532276,-5319.335200707341,15232.311514891568,0.0,0.0,0.0,0.0,146.27,162.5,163.02,154.54,133.93,Open
31,1683.7345580738256,8168.288548980779,-5792.342816870549,16523.683550796934,0.0,0.0,0.0,0.0,146.27,162.5,163.02,154.54,133.93,Open
32,1758.2329223433642,7569.284149323005,-5414.732446042592,13012.112738145916,0.0,0.0,0.0,0.0,146.27,162.5,163.02,154.54,133.93,Open
33,-860.7209754849644,4102.126252904684,-6420.024504664481,10376.037404064824,0.0,0.0,0.0,0.0,146.23,162.9,163.89,156.04,136.66,Open
34,1589.477251705796,6785.833154420037,-5253.486961542006,11063.018269898686,0.0,0.0,0.0,0.0,146.23,162.9,163.89,156.04,136.66,Open
35,1452.7739826171378,7567.898341166776,-5790.040587191652,14609.703673088989,0.0,0.0,0.0,0.0,146.23,162.9,163.89,156.04,136.66,Open
36,-2298.921620717242,7461.526389303969,-8086.50351601881,11153.274614009217,0.0,0.0,0.0,0.0,145.81,162.45,164.18,157.5,140.34,Open
37,-2191.9685234985977,7621.609583092879,-8079.283902559746,12411.633123354091,0.0,0.0,0.0,0.0,145.81,162.45,164.18,157.5,140.34,Open
38,-2183.1619361832068,8208.253468066869,-8415.923525801127,14766.67997439861,0.0,0.0,0.0,0.0,141.46,161.33,159.94,154.48,139.92,Open
39,-2106.0037143234867,8717.113282336388,-8574.062117822423,15182.668290456331,0.0,0.0,0.0,0.0,152.85,162.87,167.02,169.0,161.69,Open
40,-1893.1480518755975,8488.72315749206,-8111.962152953405,12108.29759935112,0.0,0.0,0.0,0.0,160.18,164.12,168.33,167.4,164.14,Open
41,4784.077976236103,13249.488264261276,-3807.396150517005,18415.02111137165,0.0,0.0,0.0,0.0,163.87,166.23,168.83,166.88,165.19,Open
42,1755.081326375166,10253.572196194196,-7198.066377409265,15710.795308446326,0.0,0.0,0.0,0.0,163.87,166.23,168.83,166.88,165.19,Open
43,2100.482833443026,10670.119305863298,-6697.94609522177,13807.857192499305,0.0,0.0,0.0,0.0,163.87,166.23,168.83,166.88,165.19,Open
44,2377.197429799727,10792.830382922932,-6126.702562177487,12234.719065990335,0.0,0.0,0.0,0.0,163.87,166.23,168.83,166.88,165.19,Open
45,2484.3740444629248,11278.600845170122,-6016.799034690743,12688.70534762208,0.0,0.0,0.0,0.0,163.87,166.23,168.83,166.88,165.19,Open
46,1177.7357670945844,8696.594380926417,-7115.83430955819,9867.959900851238,0.0,0.0,0.0,0.0,163.87,166.23,168.83,166.88,165.19,Open
47,2592.422377159879,12891.659187276267,-6436.564795561409,15849.867862447249,0.0,0.0,0.0,0.0,163.87,166.23,168.83,166.88,165.19,Open
48,2767.481239733844,12766.33295611536,-6056.361622376636,13486.886142121097,0.0,0.0,0.0,0.0,166.66,165.84,168.41,167.37,164.13,Open
49,1223.5121397390533,9048.902577030967,-7378.109678996763,12937.61437387638,0.0,0.0,0.0,0.0,166.66,165.84,168.41,167.37,164.13,Open
50,1232.1175613543464,8413.755406588962,-7109.039379243777,9035.089198957588,0.0,0.0,0.0,0.0,166.66,165.84,168.41,167.37,164.13,Open
51,2675.0791281556044,12086.124668851457,-6071.985491750896,14503.666997393011,0.0,0.0,0.0,0.0,166.66,165.84,168.41,167.37,164.13,Open
52,2716.541614120199,10500.156641025143,-6107.524765434834,13577.768335076373,0.0,0.0,0.0,0.0,166.66,165.84,168.41,167.37,164.13,Open
53,608.9285741959303,8551.576262900384,-8245.893805729605,13988.347528975908,0.0,0.0,0.0,0.0,166.66,165.84,168.41,167.37,164.13,Open
54,2493.694721900788,10196.038805966236,-5940.713696564877,10785.096679341395,0.0,0.0,0.0,0.0,166.66,165.84,168.41,167.37,164.13,Open
55,2758.0041000847937,10813.639857010823,-6020.978810903885,14124.246135264177,0.0,0.0,0.0,0.0,166.66,165.84,168.41,167.37,164.13,Open
56,415.3848189574264,7398.963856573565,-7896.424281170879,9312.22847845894,0.0,0.0,0.0,0.0,166.66,165.84,168.41,167.37,164.13,Open
57,2171.762546511,9818.495490371644,-6799.49007028223,15782.387945936674,0.0,0.0,0.0,0.0,172.54,162.94,168.04,170.09,166.11,Open
58,919.9978017804387,7635.55707163299,-7416.442920737615,10071.718403305818,0.0,0.0,0.0,0.0,172.54,162.94,168.04,170.09,166.11,Open
59,2679.7953462356745,11845.1952153677,-6376.103326809804,15853.891176449202,0.0,0.0,0.0,0.0,172.54,162.94,168.04,170.09,166.11,Open
60,826.2545855348809,7394.582914660325,-7368.967815514543,6443.113856686814,0.0,0.0,0.0,0.0,172.54,162.94,168.04,170.09,166.11,Open
61,536.7994948386544,8095.824193456673,-7972.666081507931,9088.822792628143,0.0,0.0,0.0,0.0,172.54,162.94,168.04,170.09,166.11,Open
62,2423.465540822213,10027.88663242896,-6623.8724140968825,16455.644840674977,0.0,0.0,0.0,0.0,172.54,162.94,168.04,170.09,166.11,Open
63,357.6502630293683,8159.683127365485,-8086.212943340892,11657.194692754114,0.0,0.0,0.0,0.0,172.54,162.94,168.04,170.09,166.11,Open
64,2676.9790264343055,9677.67950030321,-5848.49039894228,11614.77108177794,0.0,0.0,0.0,0.0,172.54,162.94,168.04,170.09,166.11,Open
65,1530.3345358770534,9323.896089064609,-7248.536616389349,12037.15199674988,0.0,0.0,0.0,0.0,172.54,162.94,168.04,170.09,166.11,Open
66,2611.488415180256,10622.733607618047,-6154.910463680085,15142.792778348065,0.0,0.0,0.0,0.0,172.54,162.94,168.04,170.09,166.11,Open
67,906.1620719626036,9403.28948536986,-7904.560316152611,12333.1114450826,0.0,0.0,0.0,0.0,172.54,162.94,168.04,170.09,166.11,Open
68,1634.89599643898,7906.32610396458,-6640.680925927273,5873.300835287671,0.0,0.0,0.0,0.0,172.54,162.94,168.04,170.09,166.11,Open
69,1736.2164540548868,10762.9908040751,-6672.487458287175,4780.412290145432,0.0,0.0,0.0,0.0,172.54,162.94,168.04,170.09,166.11,Open
70,1569.6959578628491,11014.336170475028,-7362.865789278244,12110.86804996348,0.0,0.0,0.0,0.0,174.58,164.89,169.9,169.04,165.01,Open
71,1409.4339501182974,9594.910990585207,-7336.781303498901,12840.607802940343,0.0,0.0,0.0,0.0,174.58,164.89,169.9,169.04,165.01,Open
72,1733.1542650645097,9639.05568588444,-6613.88118432536,6823.518195571684,0.0,0.0,0.0,0.0,174.58,164.89,169.9,169.04,165.01,Open
73,1678.5936568491052,10780.8945513838,-6701.902353990359,5136.609689785206,0.0,0.0,0.0,0.0,174.58,164.89,169.9,169.04,165.01,Open
74,1600.340199511075,8976.415869762406,-6810.263611109688,7725.47813957669,0.0,0.0,0.0,0.0,174.58,164.89,169.9,169.04,165.01,Open
75,1252.457648808676,8815.058626539543,-7397.868621095255,14918.4706709946,0.0,0.0,0.0,0.0,174.58,164.89,169.9,169.04,165.01,Open
76,1469.381328747431,10082.447240644366,-6945.0893336641,9466.053183800364,0.0,0.0,0.0,0.0,174.58,164.89,169.9,169.04,165.01,Open
77,1324.899652588326,10328.830519775214,-7583.566914029946,15966.856892926324,0.0,0.0,0.0,0.0,174.58,164.89,169.9,169.04,165.01,Open
78,1538.4258673698746,8900.822270014558,-6892.808603383137,9359.055383092807,0.0,0.0,0.0,0.0,174.58,164.89,169.9,169.04,165.01,Open
79,1217.9465553696818,10193.155430931502,-7416.331162015339,15276.992652057726,0.0,0.0,0.0,0.0,174.58,164.89,169.9,169.04,165.01,Open
80,1253.6422912648072,10036.402647066432,-7114.582611868694,11243.17333020846,0.0,0.0,0.0,0.0,174.58,164.89,169.9,169.04,165.01,Open
81,1091.1898125636355,10507.666827162127,-7536.628250673802,13873.526617708996,0.0,0.0,0.0,0.0,174.58,164.89,169.9,169.04,165.01,Open
82,1082.271466525968,11047.32734529106,-7808.872498139442,15064.718134965677,0.0,0.0,0.0,0.0,174.58,164.89,169.9,169.04,165.01,Open
83,1036.5397973704098,10214.099015486125,-7573.955663914164,13520.257296592868,0.0,0.0,0.0,0.0,174.58,164.89,169.9,169.04,165.01,Open
84,1254.1116778983687,10283.232961086387,-7130.407646943051,7860.750897020209,0.0,0.0,0.0,0.0,174.58,164.89,169.9,169.04,165.01,Open
85,1383.4612230612306,9622.694208943154,-6895.155536550944,10973.343071143994,0.0,0.0,0.0,0.0,174.58,164.89,169.9,169.04,165.01,Open
86,1389.026807430602,9449.401134181158,-6861.337347190064,11183.717689957344,0.0,0.0,0.0,0.0,174.58,164.89,169.9,169.04,165.01,Open
87,1296.8258615524603,9730.966059084662,-7216.931249729544,13739.90788935517,0.0,0.0,0.0,0.0,174.58,164.89,169.9,169.04,165.01,Open
88,1270.4955065841089,10100.507450164254,-7506.296933447949,15585.200856351956,0.0,0.0,0.0,0.0,174.58,164.89,169.9,169.04,165.01,Open
89,989.4893752919884,10791.08694685542,-7828.340867560014,16033.643905358782,0.0,0.0,0.0,0.0,174.16,164.93,169.46,168.95,164.18,Open
90,1492.96241914778,9350.38290624415,-6825.239279894743,9060.525484147724,0.0,0.0,0.0,0.0,174.16,164.93,169.46,168.95,164.18,Open
91,1388.8926969638703,9207.778776619289,-6928.951374167368,11142.858701093042,0.0,0.0,0.0,0.0,174.16,164.93,169.46,168.95,164.18,Open
92,1207.2847732645005,9761.878521666353,-7089.861582501124,8863.360746307462,0.0,0.0,0.0,0.0,174.16,164.93,169.46,168.95,164.18,Open
93,1153.6629383162187,10086.09057499058,-7721.208956385727,17191.799544310517,0.0,0.0,0.0,0.0,174.16,164.93,169.46,168.95,164.18,Open
94,1277.7598235320836,10061.838932256573,-7408.955086345088,13384.716318215886,0.0,0.0,0.0,0.0,174.16,164.93,169.46,168.95,164.18,Open
95,1233.3469072993885,10786.437784008716,-7438.99583089302,13162.65173705241,0.0,0.0,0.0,0.0,174.16,164.93,169.46,168.95,164.18,Open
96,1331.4710654581863,10328.361133141654,-7037.312631286697,10306.14349915308,0.0,0.0,0.0,0.0,174.16,164.93,169.46,168.95,164.18,Open
97,1210.5704796994305,10148.898976909994,-7122.740998594881,10889.367567225405,0.0,0.0,0.0,0.0,174.16,164.93,169.46,168.95,164.18,Open
98,1053.5271231564432,10451.742762534948,-7513.471843418103,13740.354924244277,0.0,0.0,0.0,0.0,174.16,164.93,169.46,168.95,164.18,Open
99,1052.633053378231,10838.919679989778,-7771.29921571007,15418.1886217819,0.0,0.0,0.0,0.0,174.16,164.93,169.46,168.95,164.18,Open
100,1185.8270985874055,10518.306257522852,-7450.864607198788,12854.331774035903,0.0,0.0,0.0,0.0,174.16,164.93,169.46,168.95,164.18,Open
101,1215.3761047573216,9825.022199752591,-7043.816988923191,9676.047822957971,0.0,0.0,0.0,0.0,174.16,164.93,169.46,168.95,164.18,Open
102,1098.655295211708,9519.719722237554,-7061.340756576152,9221.413340737026,0.0,0.0,0.0,0.0,174.16,164.93,169.46,168.95,164.18,Open
103,871.3827575901458,9624.728217688587,-7510.253192216539,13051.92119502082,0.0,0.0,0.0,0.0,174.16,164.93,169.46,168.95,164.18,Open
104,695.675694426977,9790.354644102412,-7931.315354265614,16530.880812511543,0.0,0.0,0.0,0.0,174.16,164.93,169.46,168.95,164.18,Open
105,656.5601416301896,9350.941699855532,-7759.095163237473,12979.6133017079,0.0,0.0,0.0,0.0,174.16,164.93,169.46,168.95,164.18,Open
106,498.9803432202749,8584.947417372157,-7528.738084881078,9316.207088971983,0.0,0.0,0.0,0.0,174.16,164.93,169.46,168.95,164.18,Open
107,189.2522203030849,8207.42645352202,-7766.024204018618,10000.572800704576,0.0,0.0,0.0,0.0,174.16,164.93,169.46,168.95,164.18,Open
108,-98.54884130344884,8365.743859498962,-8317.799367642328,13207.265818985205,0.0,0.0,0.0,0.0,173.82,165.11,169.08,169.16,164.91,Open
109,-180.6915021767023,8771.204503918232,-8677.684805117227,14653.602499199213,0.0,0.0,0.0,0.0,173.82,165.11,169.08,169.16,164.91,Open
110,-28.185549758142205,8673.326214948442,-8345.090847622258,11929.707161153216,0.0,0.0,0.0,0.0,173.82,165.11,169.08,169.16,164.91,Open
111,109.07651294189849,8303.963637824492,-7897.206592226815,8989.379881546483,0.0,0.0,0.0,0.0,173.82,165.11,169.08,169.16,164.91,Open
112,143.90053080326686,8376.226827648501,-7841.17076887736,10237.434236697463,0.0,0.0,0.0,0.0,173.82,165.11,169.08,169.16,164.91,Open
113,269.04794800853114,9063.990004538298,-7994.548439329677,13099.575114199532,0.0,0.0,0.0,0.0,173.82,165.11,169.08,169.16,164.91,Open
114,466.97264516027514,9835.058133013026,-8086.950550907916,15915.537287656938,0.0,0.0,0.0,0.0,173.82,165.11,169.08,169.16,164.91,Open
115,744.1789798949933,9907.030750159116,-7652.097362529917,14702.597523045246,0.0,0.0,0.0,0.0,173.82,165.11,169.08,169.16,164.91,Open
116,949.9044358616396,9693.571590610933,-7069.320329346697,10701.903486478745,0.0,0.0,0.0,0.0,173.82,165.11,169.08,169.16,164.91,Open
117,1043.2453207070018,9898.604142499464,-6869.719251360804,10046.572690793597,0.0,0.0,0.0,0.0,173.82,165.11,169.08,169.16,164.91,Open
118,1089.915763129683,10531.046751862375,-7060.178465864476,13104.336035768514,0.0,0.0,0.0,0.0,173.82,165.11,169.08,169.16,164.91,Open
119,1163.4753541320986,11137.382523701492,-7257.678479871569,16046.40675144276,0.0,0.0,0.0,0.0,173.82,165.11,169.08,169.16,164.91,Open
120,1416.1171217104345,11111.074520477596,-6828.033247951656,13559.484608111932,0.0,0.0,0.0,0.0,173.82,165.11,169.08,169.16,164.91,Open
121,1571.1935247413546,10684.312663592418,-6316.759445280963,10691.465221818116,0.0,0.0,0.0,0.0,173.82,165.11,169.08,169.16,164.91,Open
122,1565.829106072081,10557.354755086277,-6271.541866247877,11727.17800464368,0.0,0.0,0.0,0.0,173.82,165.11,169.08,169.16,164.91,Open
123,1500.1596808623888,10861.7631628231,-6604.694617354228,13973.058935768478,0.0,0.0,0.0,0.0,173.82,165.11,169.08,169.16,164.91,Open
124,1412.2055664307554,11130.520538153713,-6962.009604216767,16758.93566118904,0.0,0.0,0.0,0.0,173.82,165.11,169.08,169.16,164.91,Open
125,1491.956590647291,10759.70509764017,-6672.643920498362,14450.738066522845,0.0,0.0,0.0,0.0,173.82,165.11,169.08,169.16,164.91,Open
126,1569.7853648406704,10077.306339419643,-6224.7820168473745,10889.904009092334,0.0,0.0,0.0,0.0,173.82,165.11,169.08,169.16,164.91,Open
127,1509.5921170225283,9794.735586015651,-6210.074568995782,10499.284922991386,0.0,0.0,0.0,0.0,173.82,165.11,169.08,169.16,164.91,Open
128,1366.0492141305465,9931.3941516154,-6585.449765378209,14145.32383028553,0.0,0.0,0.0,0.0,173.82,165.11,169.08,169.16,164.91,Open
129,1296.937620274737,10166.646262007507,-6912.902821648458,17807.076013931754,0.0,0.0,0.0,0.0,173.82,165.11,169.08,169.16,164.91,Open
130,1375.347539823954,9808.995998978138,-6657.400030779842,15409.203220510868,0.0,0.0,0.0,0.0,173.82,165.11,169.08,169.16,164.91,Open
131,1388.468013819219,9147.227900889862,-6311.640895800698,11465.46142881649,0.0,0.0,0.0,0.0,173.82,165.11,169.08,169.16,164.91,Open
132,1254.2904918540112,8883.052633172589,-6429.5239960579875,11176.252207309271,0.0,0.0,0.0,0.0,173.82,165.11,169.08,169.16,164.91,Open
133,1069.0392338084262,9118.371798798062,-6911.248792558765,14344.679039082414,0.0,0.0,0.0,0.0,173.82,165.11,169.08,169.16,164.91,Open
134,957.8169533988182,9505.615771486257,-7321.000971913454,16507.32207385565,0.0,0.0,0.0,0.0,173.82,165.11,169.08,169.16,164.91,Open
135,1022.9052332526724,9398.685026012066,-7092.141460435565,12992.934941403264,0.0,0.0,0.0,0.0,173.82,165.11,169.08,169.16,164.91,Open
136,1057.013995291471,9062.537141148705,-6699.600124311462,8254.968613978459,0.0,0.0,0.0,0.0,173.82,165.11,169.08,169.16,164.91,Open
137,931.6877641305643,9079.949150079388,-6766.118915810456,9132.498101293815,0.0,0.0,0.0,0.0,173.82,165.11,169.08,169.16,164.91,Open
138,788.5918961276885,9596.22974350807,-7170.439621262506,13839.708428348116,0.0,0.0,0.0,0.0,174.45,164.71,168.59,169.15,165.72,Open
139,811.6588964055653,10274.091097604169,-7449.545854275925,17057.219690945112,0.0,0.0,0.0,0.0,174.45,164.71,168.59,169.15,165.72,Open
140,1042.6194718622532,10424.607744766206,-7066.056974656221,14182.271263870152,0.0,0.0,0.0,0.0,174.45,164.71,168.59,169.15,165.72,Open
141,1208.648229676274,10241.032867554768,-6554.671413263251,10198.139869945036,0.0,0.0,0.0,0.0,174.45,164.71,168.59,169.15,165.72,Open
142,1197.5170609375311,10308.177507898512,-6508.559764451953,10024.377408549475,0.0,0.0,0.0,0.0,174.45,164.71,168.59,169.15,165.72,Open
143,1095.5260509879652,10724.83637628989,-6887.108908547033,13998.472869214162,0.0,0.0,0.0,0.0,174.45,164.71,168.59,169.15,165.72,Open
144,1079.298684513412,11203.07430065564,-7211.879755482645,17251.03166711708,0.0,0.0,0.0,0.0,174.45,164.71,168.59,169.15,165.72,Open
145,1276.1504979313015,11132.509843410236,-6869.272216471698,14147.067266353044,0.0,0.0,0.0,0.0,174.45,164.71,168.59,169.15,165.72,Open
146,1447.8118953480596,10759.056897050965,-6368.369623228267,9227.73888441788,0.0,0.0,0.0,0.0,174.45,164.71,168.59,169.15,165.72,Open
147,1399.353313368954,10627.159253020198,-6375.5221814539655,9173.021813991289,0.0,0.0,0.0,0.0,174.45,164.71,168.59,169.15,165.72,Open
148,1243.8969306822933,10833.443502598227,-6780.759308428683,13837.294439946943,0.0,0.0,0.0,0.0,174.45,164.71,168.59,169.15,165.72,Open
149,1158.0662319739142,11101.10564245053,-7137.627260402115,16681.531570140312,0.0,0.0,0.0,0.0,174.45,164.71,168.59,169.15,165.72,Open
150,1180.1497554957575,10760.375649973828,-6929.666629989938,14054.911023963812,0.0,0.0,0.0,0.0,174.45,164.71,168.59,169.15,165.72,Open
151,1227.0213636185365,10174.625834778051,-6542.087381134914,10495.842754345267,0.0,0.0,0.0,0.0,174.45,164.71,168.59,169.15,165.72,Open
152,1176.4840694050872,9973.370727702466,-6564.528532568042,10511.757196397448,0.0,0.0,0.0,0.0,174.45,164.71,168.59,169.15,165.72,Open
153,1095.6378097102415,10247.0678385577,-6924.145749109477,13183.103583229016,0.0,0.0,0.0,0.0,174.45,164.71,168.59,169.15,165.72,Open
154,1062.333710471834,10588.423679879152,-7249.609500123203,15907.267142208477,0.0,0.0,0.0,0.0,174.45,164.71,168.59,169.15,165.72,Open
155,1121.0293914114704,10317.94522022548,-7022.582831690649,13777.861151440282,0.0,0.0,0.0,0.0,174.45,164.71,168.59,169.15,165.72,Open
156,1140.073077687392,9756.827027419453,-6661.602158737441,10172.457715565886,0.0,0.0,0.0,0.0,174.45,164.71,168.59,169.15,165.72,Open
157,1005.62733478872,9517.88687919222,-6743.320136466043,10671.706279719623,0.0,0.0,0.0,0.0,174.45,164.71,168.59,169.15,165.72,Open
158,807.5461754257889,9727.680352649732,-7210.963333959978,13940.984182475113,0.0,0.0,0.0,0.0,174.45,164.71,168.59,169.15,165.72,Open
159,687.4055489785134,10051.378315851489,-7633.254841954093,16175.53277916107,0.0,0.0,0.0,0.0,174.86,164.16,167.51,170.62,166.76,Open
160,696.2344880383597,9797.4624988392,-7481.508848847014,13437.779359552786,0.0,0.0,0.0,0.0,174.86,164.16,167.51,170.62,166.76,Open
161,633.8954727525083,9203.286075983771,-7216.752435773902,10065.057583458136,0.0,0.0,0.0,0.0,174.86,164.16,167.51,170.62,166.76,Open
162,444.9114733828871,8945.659869391904,-7370.152457970675,10538.13225485471,0.0,0.0,0.0,0.0,174.86,164.16,167.51,170.62,166.76,Open
163,292.1820035197739,9193.697177612446,-7821.188309334316,13730.743674128496,0.0,0.0,0.0,0.0,174.86,164.16,167.51,170.62,166.76,Open
164,251.97121524467653,9576.716670598587,-8196.965837116937,16026.848975044368,0.0,0.0,0.0,0.0,174.86,164.16,167.51,170.62,166.76,Open
165,368.2673416456392,9434.648982840656,-7959.277386579202,13309.569753357144,0.0,0.0,0.0,0.0,174.86,164.16,167.51,170.62,166.76,Open
166,477.880296454465,9026.617887809023,-7543.646698432768,9961.703117096797,0.0,0.0,0.0,0.0,174.86,164.16,167.51,170.62,166.76,Open
167,513.1737009493949,9018.101873171554,-7485.420404126693,10525.235298303998,0.0,0.0,0.0,0.0,174.86,164.16,167.51,170.62,166.76,Open
168,551.2610735012381,9517.998637914496,-7717.632677272878,13692.18691494309,0.0,0.0,0.0,0.0,174.86,164.16,167.51,170.62,166.76,Open
169,664.8526388231086,10150.977689144336,-7857.5545975631,15917.593648146829,0.0,0.0,0.0,0.0,174.86,164.16,167.51,170.62,166.76,Open
170,879.8093652497967,10229.45466392692,-7463.292177115939,13159.164864917382,0.0,0.0,0.0,0.0,174.86,164.16,167.51,170.62,166.76,Open
171,1075.208315278091,10050.193673395355,-6953.538293068206,10296.17462112601,0.0,0.0,0.0,0.0,174.86,164.16,167.51,170.62,166.76,Open
172,1238.823084690939,10247.447818213444,-6744.996517300191,11267.290862475737,0.0,0.0,0.0,0.0,174.86,164.16,167.51,170.62,166.76,Open
173,1432.4338951628083,10943.838768462989,-6810.174204131867,14739.366142674226,0.0,0.0,0.0,0.0,174.86,164.16,167.51,170.62,166.76,Open
174,1668.401261377485,11698.4113095297,-6849.714440073305,17003.73196646356,0.0,0.0,0.0,0.0,174.86,164.16,167.51,170.62,166.76,Open
175,1906.8496712267008,11712.917591681196,-6446.51132184402,13961.324269929442,0.0,0.0,0.0,0.0,174.86,164.16,167.51,170.62,166.76,Open
176,1984.9466663535436,11238.5018156173,-6006.785453174764,11332.356790585136,0.0,0.0,0.0,0.0,174.86,164.16,167.51,170.62,166.76,Open
177,1909.420121839061,11037.13494981944,-6004.99731361834,12379.223093893896,0.0,0.0,0.0,0.0,174.86,164.16,167.51,170.62,166.76,Open
178,1810.5807078576936,11261.434705428446,-6367.587312172332,15847.453874046074,0.0,0.0,0.0,0.0,175.28,164.3,168.12,170.66,167.51,Open
179,1789.4359576029728,11573.755630702452,-6675.303778088543,18307.933903686277,0.0,0.0,0.0,0.0,175.28,164.3,168.12,170.66,167.51,Open
180,1842.74486812888,11252.89633904652,-6452.099257957847,15790.9263123186,0.0,0.0,0.0,0.0,175.28,164.3,168.12,170.66,167.51,Open
181,1837.3804494596063,10596.135031716232,-6106.809509612264,12464.427943757528,0.0,0.0,0.0,0.0,175.28,164.3,168.12,170.66,167.51,Open
182,1750.789791439747,10304.84709797467,-6132.469312246956,12697.489583193015,0.0,0.0,0.0,0.0,175.28,164.3,168.12,170.66,167.51,Open
183,1674.7044533138817,10486.566780396315,-6467.723127332107,15457.885319934529,0.0,0.0,0.0,0.0,175.28,164.3,168.12,170.66,167.51,Open
184,1750.5439222507384,10836.215118910684,-6681.517563047119,17249.869376405404,0.0,0.0,0.0,0.0,175.28,164.3,168.12,170.66,167.51,Open
185,2009.06419862082,10706.59735281436,-6271.161886592136,13614.358140749711,0.0,0.0,0.0,0.0,175.28,164.3,168.12,170.66,167.51,Open
186,2171.7848982554556,10235.176710507478,-5787.559543557113,10401.451337510509,0.0,0.0,0.0,0.0,175.28,164.3,168.12,170.66,167.51,Open
187,2158.306796348905,10074.020632984715,-5780.854020220521,12021.2375546977,0.0,0.0,0.0,0.0,175.28,164.3,168.12,170.66,167.51,Open
188,2179.3621396258045,10476.35203318024,-6071.829029539708,15706.704939211004,0.0,0.0,0.0,0.0,175.28,164.3,168.12,170.66,167.51,Open
189,2359.3830894688476,11114.092005979062,-6224.826720336285,18575.14900864947,0.0,0.0,0.0,0.0,175.28,164.3,168.12,170.66,167.51,Open
190,2641.3056422836357,11190.579675505123,-5801.395273374948,16259.105951679465,0.0,0.0,0.0,0.0,175.28,164.3,168.12,170.66,167.51,Open
191,2862.006767035338,10920.525898996104,-5263.813467480358,13084.442983203293,0.0,0.0,0.0,0.0,175.28,164.3,168.12,170.66,167.51,Open
192,2931.4536370579767,10989.302216685082,-5193.114899768222,13968.298014199498,0.0,0.0,0.0,0.0,175.28,164.3,168.12,170.66,167.51,Open
193,2996.7430826119285,11577.175447604115,-5399.041521434966,17436.573497840585,0.0,0.0,0.0,0.0,175.28,164.3,168.12,170.66,167.51,Open
194,3094.1519849481565,12226.314810075142,-5598.977875587688,19646.423416903428,0.0,0.0,0.0,0.0,175.28,164.3,168.12,170.66,167.51,Open
195,3214.359666628798,12181.812486864626,-5331.203977013109,17018.148841637238,0.0,0.0,0.0,0.0,175.28,164.3,168.12,170.66,167.51,Open
196,3280.096147071856,11810.214735295143,-4908.711303318894,13893.21850457412,0.0,0.0,0.0,0.0,175.28,164.3,168.12,170.66,167.51,Open
197,3291.517888488518,11810.348845761877,-4812.017656805237,14369.958862061369,0.0,0.0,0.0,0.0,175.28,164.3,168.12,170.66,167.51,Open
198,3305.3089148174427,12257.674307545938,-5027.957859987958,17476.806637860136,0.0,0.0,0.0,0.0,175.28,164.3,168.12,170.66,167.51,Open
199,3388.032721046534,12786.516581358504,-5169.600864601239,19629.50314635076,0.0,0.0,0.0,0.0,175.28,164.3,168.12,170.66,167.51,Open
200,3540.449266487273,12632.177785894608,-4793.644522862974,16790.317510404293,0.0,0.0,0.0,0.0,175.28,164.3,168.12,170.66,167.51,Open
201,3553.6591474603592,12029.887679801905,-4370.146020668271,12896.040129189509,0.0,0.0,0.0,0.0,175.28,164.3,168.12,170.66,167.51,Open
202,3418.542852228028,11765.533598128986,-4404.724169340631,12630.657867271646,0.0,0.0,0.0,0.0,175.28,164.3,168.12,170.66,167.51,Open
203,3294.5353739899847,12003.646731811374,-4784.077976236103,15220.934476963816,0.0,0.0,0.0,0.0,175.28,164.3,168.12,170.66,167.51,Open
204,3248.6919461121497,12356.848997694136,-5154.222864415988,17851.220709230987,0.0,0.0,0.0,0.0,175.28,164.3,168.12,170.66,167.51,Open
205,3366.955026025179,12085.230599073244,-4920.155396480012,15542.061989553213,0.0,0.0,0.0,0.0,175.28,164.3,168.12,170.66,167.51,Open
206,3440.380506560863,11379.429564408012,-4528.910461534317,12462.952728623475,0.0,0.0,0.0,0.0,175.28,164.3,168.12,170.66,167.51,Open
207,3367.647930103294,10935.948602670263,-4577.749023169163,13654.3230598358,0.0,0.0,0.0,0.0,175.28,164.3,168.12,170.66,167.51,Open
208,3258.2808444834764,10947.191530131286,-4982.807336188238,16723.30698052728,0.0,0.0,0.0,0.0,175.28,164.3,168.12,170.66,167.51,Open
209,3272.5189057015073,11148.021954062218,-5295.888220773723,19091.094325911323,0.0,0.0,0.0,0.0,176.63,163.04,167.88,170.19,165.44,Open
210,3393.8888780938246,10765.069516309442,-5048.186188720011,16132.57272631797,0.0,0.0,0.0,0.0,176.63,163.04,167.88,170.19,165.44,Open
211,3407.478738722651,10030.3676760635,-4710.674847444874,12186.260484011233,0.0,0.0,0.0,0.0,176.63,163.04,167.88,170.19,165.44,Open
212,3305.554784006451,9749.294489538011,-4777.283045921689,12046.271508487644,0.0,0.0,0.0,0.0,176.63,163.04,167.88,170.19,165.44,Open
213,3224.1497307002223,10136.918441881948,-5128.518358292385,14665.7618481829,0.0,0.0,0.0,0.0,176.63,163.04,167.88,170.19,165.44,Open
214,3200.725102511061,10784.18025781873,-5424.589565347382,16867.81100843084,0.0,0.0,0.0,0.0,176.63,163.04,167.88,170.19,165.44,Open
215,3224.172082444678,10881.633863643869,-5192.936085812579,14310.16794564342,0.0,0.0,0.0,0.0,176.63,163.04,167.88,170.19,165.44,Open
216,3203.317904867876,10706.127966180798,-4807.837880592094,11194.02184415124,0.0,0.0,0.0,0.0,176.63,163.04,167.88,170.19,165.44,Open
217,3079.891571985671,11010.044635539609,-4847.221654322345,11197.396957563991,0.0,0.0,0.0,0.0,176.63,163.04,167.88,170.19,165.44,Open
218,2893.992113350882,11771.300348198456,-5315.088369260832,13722.272362979931,0.0,0.0,0.0,0.0,176.63,163.04,167.88,170.19,165.44,Open
219,2760.865123375073,12527.437511377038,-5764.42548804587,16424.91119204893,0.0,0.0,0.0,0.0,176.63,163.04,167.88,170.19,165.44,Open
220,2800.1371383830474,12505.555153555291,-5547.971194740677,14495.173334499996,0.0,0.0,0.0,0.0,176.63,163.04,167.88,170.19,165.44,Open
221,2844.1030197266364,11986.32412985851,-5095.370721265164,10757.514626683547,0.0,0.0,0.0,0.0,176.63,163.04,167.88,170.19,165.44,Open
222,2872.802659607251,11805.945552104182,-4978.4934495083635,10807.828403452446,0.0,0.0,0.0,0.0,176.63,163.04,167.88,170.19,165.44,Open
223,2869.762822361329,12031.407598424865,-5208.26938250892,14195.235275654231,0.0,0.0,0.0,0.0,176.63,163.04,167.88,170.19,165.44,Open
224,2966.8364485307275,12317.934610597444,-5368.084355364365,16066.143341796798,0.0,0.0,0.0,0.0,176.63,163.04,167.88,170.19,165.44,Open
225,3217.421855619175,11855.477017817142,-4965.261216790822,13323.629000619532,0.0,0.0,0.0,0.0,176.63,163.04,167.88,170.19,165.44,Open
226,3366.373880669342,10952.958280200754,-4451.819294907963,10091.90202854896,0.0,0.0,0.0,0.0,174.88,161.28,167.12,172.41,165.52,Open
227,3304.3477898058645,10485.40448968464,-4370.883628235296,10523.335400025297,0.0,0.0,0.0,0.0,174.88,161.28,167.12,172.41,165.52,Open
228,3207.140053169734,10583.416889121165,-4710.719550933784,14496.805011845234,0.0,0.0,0.0,0.0,174.88,161.28,167.12,172.41,165.52,Open
229,3367.424412658741,10938.787274216087,-4905.067968972679,17629.62551470107,0.0,0.0,0.0,0.0,174.88,161.28,167.12,172.41,165.52,Open
230,3619.507386625694,10615.491642414529,-4523.1660632093035,15323.685446224865,0.0,0.0,0.0,0.0,174.88,161.28,167.12,172.41,165.52,Open
231,3708.2438121132623,9869.524522963113,-4070.6773484560663,12615.078701386296,0.0,0.0,0.0,0.0,174.88,161.28,167.12,172.41,165.52,Open
232,3632.158473987398,9631.23257532508,-4038.1555602735953,12945.66100188029,0.0,0.0,0.0,0.0,174.88,161.28,167.12,172.41,165.52,Open
233,3557.347185295485,10079.47445863181,-4342.295747076958,15711.644674735628,0.0,0.0,0.0,0.0,174.88,161.28,167.12,172.41,165.52,Open
234,3558.0400893735996,10780.671033939248,-4612.48363405271,17340.751569360684,0.0,0.0,0.0,0.0,174.88,161.28,167.12,172.41,165.52,Open
235,3646.15066601642,10880.58333165447,-4306.488252459557,14050.887709961857,0.0,0.0,0.0,0.0,174.88,161.28,167.12,172.41,165.52,Open
236,3651.090401541043,10608.406139422195,-3901.832270840677,10475.569722124306,0.0,0.0,0.0,0.0,174.88,161.28,167.12,172.41,165.52,Open
237,3492.147146719354,10742.494254409585,-3939.025573614309,11309.267438562803,0.0,0.0,0.0,0.0,174.88,161.28,167.12,172.41,165.52,Open
238,3303.967810150124,11475.117382421182,-4358.187837384682,14979.87091301333,0.0,0.0,0.0,0.0,174.88,161.28,167.12,172.41,165.52,Open
239,3251.4412106801524,12386.06272769722,-4721.850719672528,17566.817112781657,0.0,0.0,0.0,0.0,174.88,161.28,167.12,172.41,165.52,Open
240,3352.269929918042,12544.62600286317,-4483.357606334402,14833.578745553345,0.0,0.0,0.0,0.0,174.88,161.28,167.12,172.41,165.52,Open
241,3359.7801160550257,12199.671530684416,-4126.064971216318,11191.65255923898,0.0,0.0,0.0,0.0,174.88,161.28,167.12,172.41,165.52,Open
242,3297.329342046898,12238.541214292194,-4182.748995154977,11684.59793145632,0.0,0.0,0.0,0.0,174.88,161.28,167.12,172.41,165.52,Open
243,3271.1107458008228,12816.06558752842,-4544.310813464023,15032.129291549838,0.0,0.0,0.0,0.0,167.71,158.71,163.85,169.9,160.57,Open
244,3164.62703521574,13431.677333316486,-4921.272983702777,17863.044782047844,0.0,0.0,0.0,0.0,167.71,158.71,163.85,169.9,160.57,Open
245,2931.855968458172,13208.226943996782,-4789.732967583295,15725.77097723138,0.0,0.0,0.0,0.0,167.71,158.71,163.85,169.9,160.57,Open
246,2853.289586697768,12647.30991689085,-4384.1158609528375,12259.708316291371,0.0,0.0,0.0,0.0,167.71,158.71,163.85,169.9,160.57,Open
247,2822.5559380717204,12577.72893640148,-4363.48520082059,12664.02902174342,0.0,0.0,0.0,0.0,167.71,158.71,163.85,169.9,160.57,Open
248,2797.544336026232,13078.430363944814,-4704.572821208575,16174.48224717167,0.0,0.0,0.0,0.0,167.71,158.71,163.85,169.9,160.57,Open
249,2810.0836646656594,13689.080022463802,-5001.493394552875,18800.834572414708,0.0,0.0,0.0,0.0,167.71,158.71,163.85,169.9,160.57,Open
250,2947.5468930657976,13582.64101536763,-4693.575762936564,15902.52857238395,0.0,0.0,0.0,0.0,167.71,158.71,163.85,169.9,160.57,Open
251,2982.7508905829063,13009.38582532237,-4295.826470354375,12034.38038043742,0.0,0.0,0.0,0.0,167.71,158.71,163.85,169.9,160.57,Open
252,2816.2080426464136,12775.184246919662,-4350.677651247698,12637.318687119328,0.0,0.0,0.0,0.0,167.71,158.71,163.85,169.9,160.57,Open
253,2655.0743168681047,13109.320474782047,-4734.568862267597,16289.392565416403,0.0,0.0,0.0,0.0,167.71,158.71,163.85,169.9,160.57,Open
254,2668.038328652183,13649.56213826682,-5054.176456234033,18870.59436685972,0.0,0.0,0.0,0.0,167.71,158.71,163.85,169.9,160.57,Open
255,2713.0547419851714,13565.340765159222,-4802.987552045292,16257.898957478876,0.0,0.0,0.0,0.0,167.71,158.71,163.85,169.9,160.57,Open
256,2686.187945149892,13198.570990392089,-4600.748968213674,13868.944510095658,0.0,0.0,0.0,0.0,167.71,158.71,163.85,169.9,160.57,Open
257,2629.481569466778,13333.3967129465,-4912.041713242736,15514.524640384274,0.0,0.0,0.0,0.0,162.52,159.37,166.56,168.0,159.53,Open
258,2558.961815710285,13737.67271490964,-5344.190340541642,17744.580536434714,0.0,0.0,0.0,0.0,162.52,159.37,166.56,168.0,159.53,Open
259,2493.202983522771,14095.255922705644,-5621.39667527636,18882.329032698755,0.0,0.0,0.0,0.0,162.52,159.37,166.56,168.0,159.53,Open
260,2514.057161099573,13737.33743874281,-5276.0398716974105,15263.11221875098,0.0,0.0,0.0,0.0,162.52,159.37,166.56,168.0,159.53,Open
261,2548.3000336051027,13096.378814742426,-4777.618322088519,10871.82144782799,0.0,0.0,0.0,0.0,162.52,159.37,166.56,168.0,159.53,Open
262,2479.948399060774,12910.009969474077,-4730.79141745465,10289.782022211792,0.0,0.0,0.0,0.0,162.52,159.37,166.56,168.0,159.53,Open
263,2306.834138254421,13165.535112087146,-5119.041218643334,13141.998725175708,0.0,0.0,0.0,0.0,162.52,159.37,166.56,168.0,159.53,Open
264,2058.5956643337804,13446.295374190257,-5583.53282016907,15529.477957424877,0.0,0.0,0.0,0.0,162.52,159.37,166.56,168.0,159.53,Open
265,1797.0355507177771,12946.46566468068,-5514.33181933544,12750.686734996643,0.0,0.0,0.0,0.0,162.52,159.37,166.56,168.0,159.53,Open
266,1666.0766799541332,12112.052692419613,-5177.178105971588,9071.522542419738,0.0,0.0,0.0,0.0,162.52,159.37,166.56,168.0,159.53,Open
267,1569.472440418296,11755.363554401822,-5177.312216438319,9411.894906985151,0.0,0.0,0.0,0.0,162.52,159.37,166.56,168.0,159.53,Open
268,1536.8165417690925,11985.027728680105,-5499.065577872465,13054.022258999616,0.0,0.0,0.0,0.0,162.52,159.37,166.56,168.0,159.53,Open
269,1580.4024434569412,12350.188177846454,-5763.196142100828,16026.916030277736,0.0,0.0,0.0,0.0,162.52,159.37,166.56,168.0,159.53,Open
270,1720.9055091030014,12004.13847018939,-5443.677955112214,13523.386540816611,0.0,0.0,0.0,0.0,162.52,159.37,166.56,168.0,159.53,Open
271,1683.8016133071917,11202.113175644065,-4994.5196502828185,10057.413286854422,0.0,0.0,0.0,0.0,162.52,159.37,166.56,168.0,159.53,Open
272,1500.897288429414,10727.719751324625,-4974.671301206506,10674.232026843076,0.0,0.0,0.0,0.0,162.52,159.37,166.56,168.0,159.53,Open
273,1458.898360597892,10937.647335248868,-5269.401403594185,14303.954160684843,0.0,0.0,0.0,0.0,162.52,159.37,166.56,168.0,159.53,Open
274,1574.0768997760892,11353.658003051043,-5510.643781500314,16915.934314243117,0.0,0.0,0.0,0.0,162.52,159.37,166.56,168.0,159.53,Open
275,1787.6031145576376,11114.561392612624,-5167.16452445561,14367.097838771087,0.0,0.0,0.0,0.0,162.52,159.37,166.56,168.0,159.53,Open
276,1895.6067437656816,10466.0702307308,-4705.6010014535195,10928.30430606655,0.0,0.0,0.0,0.0,162.52,159.37,166.56,168.0,159.53,Open
277,1820.3484201846625,10210.992123006836,-4716.732170192262,11406.16225077656,0.0,0.0,0.0,0.0,162.52,159.37,166.56,168.0,159.53,Open
278,1671.7763747902363,10480.755326837936,-5154.625195816183,14737.376837417703,0.0,0.0,0.0,0.0,162.52,159.37,166.56,168.0,159.53,Open
279,1679.688892327415,11022.38279847894,-5512.230755356641,17144.615011765363,0.0,0.0,0.0,0.0,162.52,159.37,166.56,168.0,159.53,Open
280,1792.140518682065,10957.40627734736,-5302.839613299324,14218.749310821211,0.0,0.0,0.0,0.0,162.52,159.37,166.56,168.0,159.53,Open
281,1861.6097404491593,10453.106218946725,-4953.437143973964,10499.709606136035,0.0,0.0,0.0,0.0,162.52,159.37,166.56,168.0,159.53,Open
282,1859.5757317037264,10306.903458464558,-4989.289342080277,10763.393135475297,0.0,0.0,0.0,0.0,162.52,159.37,166.56,168.0,159.53,Open
283,1726.0911138166323,10684.513829292517,-5371.168896099198,14112.869097336425,0.0,0.0,0.0,0.0,120.36,64.68,52.0,21.91,21.87,Closed
284,1646.2953861111864,11176.609835220555,-5721.957173580787,16769.5080363164,0.0,0.0,0.0,0.0,120.36,64.68,52.0,21.91,21.87,Closed
285,1590.7513011397484,11000.098109256996,-5484.268723043051,13984.704194629694,0.0,0.0,0.0,0.0,120.36,64.68,52.0,21.91,21.87,Closed
286,1635.790066217192,10362.402839947086,-5047.38152591962,10263.116391076612,0.0,0.0,0.0,0.0,120.36,64.68,52.0,21.91,21.87,Closed
287,1600.474309977807,10047.913795460916,-5030.237737922399,10393.58352346224,0.0,0.0,0.0,0.0,120.36,64.68,52.0,21.91,21.87,Closed
288,1581.2965132351535,10337.257127434865,-5329.684058390148,13602.042329554835,0.0,0.0,0.0,0.0,120.36,64.68,52.0,21.91,21.87,Closed
289,1538.2247016697768,10696.06968117591,-5614.221765306207,16144.128578201364,0.0,0.0,0.0,0.0,120.36,64.68,52.0,21.91,21.87,Closed
290,1448.929482570825,10301.85196421766,-5363.390489028751,13536.90934621207,0.0,0.0,0.0,0.0,120.36,64.68,52.0,21.91,21.87,Closed
291,1466.7214711572494,9565.31728092638,-4887.097166430613,10113.404406714966,0.0,0.0,0.0,0.0,120.36,64.68,52.0,21.91,21.87,Closed
292,1414.932479254303,9208.225811508397,-4859.448058539398,10383.748755901905,0.0,0.0,0.0,0.0,120.36,64.68,52.0,21.91,21.87,Closed
293,1357.287330304066,9396.5169067999,-5232.811597920847,13660.805065727838,0.0,0.0,0.0,0.0,120.36,64.68,52.0,21.91,21.87,Closed
294,1292.646085339318,9693.795108055489,-5581.588218401458,16432.287267719184,0.0,0.0,0.0,0.0,120.36,64.68,52.0,21.91,21.87,Closed
295,1371.771260711105,9323.761978597877,-5317.234136728542,13887.518809738018,0.0,0.0,0.0,0.0,120.36,64.68,52.0,21.91,21.87,Closed
296,1417.0782467220124,8590.021263363513,-4863.717241730362,10059.112019433023,0.0,0.0,0.0,0.0,120.36,64.68,52.0,21.91,21.87,Closed
297,1267.9921112051145,8226.067808397747,-4897.647189813518,10273.778173181794,0.0,0.0,0.0,0.0,120.36,64.68,52.0,21.91,21.87,Closed
298,1199.9086975942491,8478.486058531531,-5336.188416026642,13538.183395646023,0.0,0.0,0.0,0.0,120.36,64.68,52.0,21.91,21.87,Closed
299,1144.8339992563724,8903.727996793747,-5754.389554785437,16180.33840421896,0.0,0.0,0.0,0.0,120.36,64.68,52.0,21.91,21.87,Closed
300,1053.594178389809,8558.773524614993,-5662.523885074125,13602.288198743843,0.0,0.0,0.0,0.0,120.36,64.68,52.0,21.91,21.87,Closed
301,888.280676398358,7824.831643680531,-5430.848053794868,9741.583137700933,0.0,0.0,0.0,0.0,98.47,60.9,44.71,20.78,11.12,Closed
302,694.1781275484715,7469.595369052336,-5547.702973807213,9972.767230602174,0.0,0.0,0.0,0.0,98.47,60.9,44.71,20.78,11.12,Closed
303,648.6923275819215,7758.983404515196,-5987.384138987558,13273.091706406083,0.0,0.0,0.0,0.0,98.47,60.9,44.71,20.78,11.12,Closed
304,669.4123946919913,8255.147427934102,-6380.528972211954,15944.192224048642,0.0,0.0,0.0,0.0,98.47,60.9,44.71,20.78,11.12,Closed
305,666.998406290818,7976.421174576423,-6222.926822057584,13232.120958819503,0.0,0.0,0.0,0.0,98.47,60.9,44.71,20.78,11.12,Closed
306,629.3804203725363,7276.431593469571,-5875.536009733201,9408.206869150028,0.0,0.0,0.0,0.0,98.47,60.9,44.71,20.78,11.12,Closed
307,462.7481654582221,6933.935813180901,-6030.701819741943,9651.61736626832,0.0,0.0,0.0,0.0,98.47,60.9,44.71,20.78,11.12,Closed
308,313.70673343023464,7219.9040317421,-6524.697723948685,13035.269145401617,0.0,0.0,0.0,0.0,98.47,60.9,44.71,20.78,11.12,Closed
309,186.83823190191177,7722.795930242054,-6950.252586633276,15600.198876881466,0.0,0.0,0.0,0.0,98.47,60.9,44.71,20.78,11.12,Closed
310,229.731229511646,7562.824495175421,-6725.99753451318,13035.000924468151,0.0,0.0,0.0,0.0,98.47,60.9,44.71,20.78,11.12,Closed
311,29.37019221427348,6861.40440242343,-6414.771844717485,9204.269552739806,0.0,0.0,0.0,0.0,98.47,60.9,44.71,20.78,11.12,Closed
312,-227.47370332165997,6707.736159293194,-6571.032890204536,9454.430276683604,0.0,0.0,0.0,0.0,98.47,60.9,44.71,20.78,11.12,Closed
313,-429.8016941310995,7170.305510795773,-7095.471870359406,12824.514546932523,0.0,0.0,0.0,0.0,98.47,60.9,44.71,20.78,11.12,Closed
314,-499.8967647429425,7674.896141874331,-7597.760271759066,15446.351819795587,0.0,0.0,0.0,0.0,98.47,60.9,44.71,20.78,11.12,Closed
315,-458.43427877834785,7446.349554818816,-7398.583876917824,12644.40419011166,0.0,0.0,0.0,0.0,88.7,61.99,44.04,21.32,11.88,Closed
316,-468.2243428497724,6711.871232017426,-6996.923029055957,9096.914124120964,0.0,0.0,0.0,0.0,88.7,61.99,44.04,21.32,11.88,Closed
317,-585.8392221735982,6270.245465069469,-7084.474812087395,9633.490101515068,0.0,0.0,0.0,0.0,88.7,61.99,44.04,21.32,11.88,Closed
318,-702.6494386970328,6415.487100540055,-7548.117047323829,13051.6306223429,0.0,0.0,0.0,0.0,88.7,61.99,44.04,21.32,11.88,Closed
319,-681.0353018087509,6827.429750851364,-7909.701217377332,15696.333729783742,0.0,0.0,0.0,0.0,88.7,61.99,44.04,21.32,11.88,Closed
320,-595.9422106673969,6529.324535050933,-7666.625996425867,12874.962434168154,0.0,0.0,0.0,0.0,88.7,61.99,44.04,21.32,11.88,Closed
321,-582.5758674831233,5726.94161259432,-7226.855424267701,9037.0338007252,0.0,0.0,0.0,0.0,88.7,61.99,44.04,21.32,11.88,Closed
322,-683.6057524211112,5307.935811035134,-7214.38315086164,9255.54445452028,0.0,0.0,0.0,0.0,88.7,61.99,44.04,21.32,11.88,Closed
323,-825.1369983121156,5490.013121368065,-7623.196556949206,12623.88528870169,0.0,0.0,0.0,0.0,88.7,61.99,44.04,21.32,11.88,Closed
324,-732.7795902227867,5942.904167521497,-7972.263750107736,15428.492775975796,0.0,0.0,0.0,0.0,88.7,61.99,44.04,21.32,11.88,Closed
325,-451.4381827638367,5773.924979439375,-7652.99143230813,12701.46819370606,0.0,0.0,0.0,0.0,88.7,61.99,44.04,21.32,11.88,Closed
326,-389.34503666699374,5152.702945793027,-7235.52790111636,9079.189190767907,0.0,0.0,0.0,0.0,88.7,61.99,44.04,21.32,11.88,Closed
327,-453.0251566201635,4967.69755693645,-7244.468598898483,9420.634439067178,0.0,0.0,0.0,0.0,88.7,61.99,44.04,21.32,11.88,Closed
328,-447.2807582951496,5495.5116505040705,-7563.9867858870975,12797.558343119425,0.0,0.0,0.0,0.0,88.7,61.99,44.04,21.32,11.88,Closed
329,-420.05633354858566,6189.84624026373,-7866.249426156214,15579.523513260308,0.0,0.0,0.0,0.0,88.7,61.99,44.04,21.32,11.88,Closed
330,-236.90613948179956,6306.745863764985,-7574.469754036636,13108.6946259373,0.0,0.0,0.0,0.0,88.7,61.99,44.04,21.32,11.88,Closed
331,-146.40392618226127,6024.666848739011,-7133.827463844713,9383.396432804637,0.0,0.0,0.0,0.0,88.7,61.99,44.04,21.32,11.88,Closed
332,-188.78283366952343,6165.482838807445,-7106.6700943315145,9665.900130975262,0.0,0.0,0.0,0.0,88.7,61.99,44.04,21.32,11.88,Closed
333,-253.66994782327984,6835.029343966168,-7469.394203352238,12967.163380046297,0.0,0.0,0.0,0.0,88.7,61.99,44.04,21.32,11.88,Closed
334,-300.78742513506717,7631.980792520141,-7864.394231366424,15583.926806918003,0.0,0.0,0.0,0.0,88.7,61.99,44.04,21.32,11.88,Closed
335,-184.1560225672749,7750.936776511286,-7617.385103390826,12721.60711546029,0.0,0.0,0.0,0.0,88.7,61.99,44.04,21.32,11.88,Closed
336,-118.26307991302969,7352.047544961875,-7187.739871470913,8858.398659038385,0.0,0.0,0.0,0.0,88.7,61.99,44.04,21.32,11.88,Closed
337,-200.85277567538927,7311.859108431234,-7158.727307167925,9134.7556274838,0.0,0.0,0.0,0.0,88.7,61.99,44.04,21.32,11.88,Closed
338,-228.34542135541696,7811.845280151997,-7464.633281783257,12557.075924524775,0.0,0.0,0.0,0.0,88.7,61.99,44.04,21.32,11.88,Closed
339,-139.96662377913282,8446.724229660538,-7784.464393194246,15437.187604568911,0.0,0.0,0.0,0.0,88.7,61.99,44.04,21.32,11.88,Closed
340,22.888186322234432,8351.617557003208,-7535.10833205084,12982.09434534244,0.0,0.0,0.0,0.0,88.7,61.99,44.04,21.32,11.88,Closed
341,131.85294054185636,7735.871700748408,-7036.843244653135,9263.702841246468,0.0,0.0,0.0,0.0,88.7,61.99,44.04,21.32,11.88,Closed
342,149.84609482837854,7457.7489444910225,-6953.784162257214,9312.630809859134,0.0,0.0,0.0,0.0,80.97,62.7,40.84,20.76,10.71,Closed
343,18.753113598002624,7570.6252539903235,-7341.631632045703,12649.120408191731,0.0,0.0,0.0,0.0,80.97,62.7,40.84,20.76,10.71,Closed
344,-55.745250671535814,7834.554652518589,-7679.23238029866,15613.676978788017,0.0,0.0,0.0,0.0,80.97,62.7,40.84,20.76,10.71,Closed
345,192.6943889492022,7625.945821517208,-7294.469451245004,13208.092833530049,0.0,0.0,0.0,0.0,80.97,62.7,40.84,20.76,10.71,Closed
346,300.0051140791314,6924.548080509673,-6777.473601993752,9399.422633579092,0.0,0.0,0.0,0.0,80.97,62.7,40.84,20.76,10.71,Closed
347,485.7257587582778,6765.113087309967,-6634.578899690974,9689.481221375612,0.0,0.0,0.0,0.0,80.97,62.7,40.84,20.76,10.71,Closed
348,380.76196679615583,6943.681173763415,-7056.6021867516265,13185.5622751191,0.0,0.0,0.0,0.0,80.97,62.7,40.84,20.76,10.71,Closed
349,226.601985287903,7358.8871787652,-7457.614834024291,16377.369031592492,0.0,0.0,0.0,0.0,80.97,62.7,40.84,20.76,10.71,Closed
350,374.6822923043123,7392.906533826177,-7133.715705122436,13797.642445283229,0.0,0.0,0.0,0.0,80.97,62.7,40.84,20.76,10.71,Closed
351,495.4711193407916,7084.564219065216,-6622.553661174019,9837.360362691925,0.0,0.0,0.0,0.0,80.97,62.7,40.84,20.76,10.71,Closed
352,433.9591185997866,7100.3892541395735,-6637.88695787036,10129.47531097833,0.0,0.0,0.0,0.0,80.97,62.7,40.84,20.76,10.71,Closed
353,350.9670914372315,7705.138052122361,-7037.133817331054,13593.392204450633,0.0,0.0,0.0,0.0,80.97,62.7,40.84,20.76,10.71,Closed
354,392.87661229093226,8560.785181615971,-7353.165132184641,16359.442932539338,0.0,0.0,0.0,0.0,80.97,62.7,40.84,20.76,10.71,Closed
355,467.35262481601535,8646.638232068806,-7101.64095182907,13662.36968783971,0.0,0.0,0.0,0.0,80.97,62.7,40.84,20.76,10.71,Closed
356,498.8685844979983,8241.602270794187,-6647.498207986142,9756.067068107972,0.0,0.0,0.0,0.0,80.97,62.7,40.84,20.76,10.71,Closed
357,465.00569164820814,8206.979418632915,-6614.64114363684,9953.745896070706,0.0,0.0,0.0,0.0,80.97,62.7,40.84,20.76,10.71,Closed
358,426.18071152933976,8676.05312777199,-6960.690851293904,13229.461101229324,0.0,0.0,0.0,0.0,80.97,62.7,40.84,20.76,10.71,Closed
359,528.3952389234589,9249.107152117153,-7297.308122790829,16099.939179413224,0.0,0.0,0.0,0.0,79.46,61.84,39.18,19.51,9.08,Closed
360,699.4531392399239,9101.250362545296,-7007.71892162787,13369.383021519545,0.0,0.0,0.0,0.0,79.46,61.84,39.18,19.51,9.08,Closed
361,777.8630587891411,8481.168267866167,-6543.830817202427,9500.11724235025,0.0,0.0,0.0,0.0,79.46,61.84,39.18,19.51,9.08,Closed
362,764.2284946714037,8288.49623066142,-6454.535598103475,9802.782214019564,0.0,0.0,0.0,0.0,79.46,61.84,39.18,19.51,9.08,Closed
363,690.355979246614,8616.46337705414,-6805.703855240805,13143.563347287578,0.0,0.0,0.0,0.0,79.46,61.84,39.18,19.51,9.08,Closed
364,652.9168072839747,9151.877063736569,-7159.688432179503,16048.329001465918,0.0,0.0,0.0,0.0,79.46,61.84,39.18,19.51,9.08,Closed
365,809.2225562599369,9001.762747974724,-6854.028326753179,13741.226642278034,0.0,0.0,0.0,0.0,79.46,61.84,39.18,19.51,9.08,Closed
366,876.4342518370453,8372.538789813374,-6365.598006915809,9828.442016654257,0.0,0.0,0.0,0.0,79.46,61.84,39.18,19.51,9.08,Closed
367,920.467188414,8219.719912972441,-6222.770359846397,9982.534942929142,0.0,0.0,0.0,0.0,79.46,61.84,39.18,19.51,9.08,Closed
368,868.4323273220454,8597.665559967227,-6514.550031965975,13061.934776536797,0.0,0.0,0.0,0.0,79.46,61.84,39.18,19.51,9.08,Closed
369,857.3235103277577,9113.096787106608,-6850.317937173598,16066.433914474715,0.0,0.0,0.0,0.0,79.46,61.84,39.18,19.51,9.08,Closed
370,1087.3900160062333,9052.389449165994,-6548.256462604579,13843.195300483145,0.0,0.0,0.0,0.0,79.46,61.84,39.18,19.51,9.08,Closed
371,1189.1798602557017,8477.256712586488,-6102.786195610309,10087.543438380177,0.0,0.0,0.0,0.0,79.46,61.84,39.18,19.51,9.08,Closed
372,1094.2296498095573,8234.852043968684,-6106.8542131011745,10371.790572618314,0.0,0.0,0.0,0.0,79.46,61.84,39.18,19.51,9.08,Closed
373,1085.8030421499066,8619.860842211347,-6439.001135707037,13832.913498033704,0.0,0.0,0.0,0.0,79.46,61.84,39.18,19.51,9.08,Closed
374,1159.8096680414285,9218.753483146846,-6757.759363384172,16704.218590762448,0.0,0.0,0.0,0.0,79.46,61.84,39.18,19.51,9.08,Closed
375,1247.1602853727682,9114.929630151944,-6511.130215064313,14217.363502664984,0.0,0.0,0.0,0.0,79.46,61.84,39.18,19.51,9.08,Closed
376,1283.034835223536,8589.306007540943,-6065.481134114401,10384.91104661358,0.0,0.0,0.0,0.0,79.86,61.43,39.64,19.43,8.96,Closed
377,1295.5294603740526,8523.793044542437,-5988.546429699234,10596.023272993956,0.0,0.0,0.0,0.0,79.86,61.43,39.64,19.43,8.96,Closed
378,1415.6253833324174,9088.263999016765,-6289.490317045488,13907.009530903046,0.0,0.0,0.0,0.0,79.86,61.43,39.64,19.43,8.96,Closed
379,1309.5663558919855,9721.332457224424,-6685.183249137789,17216.989960311646,0.0,0.0,0.0,0.0,79.86,61.43,39.64,19.43,8.96,Closed
380,1374.028786901091,9682.44042187219,-6480.597732138363,14992.63375909731,0.0,0.0,0.0,0.0,79.86,61.43,39.64,19.43,8.96,Closed
381,1380.9578276822365,9172.753593057823,-6089.822183826231,10951.080733666508,0.0,0.0,0.0,0.0,79.86,61.43,39.64,19.43,8.96,Closed
382,1327.157178778312,9071.36608020855,-6060.2508259118595,11323.5725550142,0.0,0.0,0.0,0.0,79.86,61.43,39.64,19.43,8.96,Closed
383,1272.9989019631032,9609.640790181254,-6416.4929290405435,14677.29534832184,0.0,0.0,0.0,0.0,79.86,61.43,39.64,19.43,8.96,Closed
384,1252.748221486595,10317.27466789182,-6787.040148620624,17296.42806010581,0.0,0.0,0.0,0.0,79.86,61.43,39.64,19.43,8.96,Closed
385,1365.2221995857,10276.1251063496,-6511.465491231143,14768.44576221058,0.0,0.0,0.0,0.0,79.86,61.43,39.64,19.43,8.96,Closed
386,1450.8070291050708,9814.069844969494,-6009.512365998312,10964.625890806425,0.0,0.0,0.0,0.0,79.86,61.43,39.64,19.43,8.96,Closed
387,1349.352461022432,9626.963392134116,-6003.700912439932,11018.89592634391,0.0,0.0,0.0,0.0,79.86,61.43,39.64,19.43,8.96,Closed
388,1262.3818233468323,9967.514570655176,-6340.295832192402,14246.82310185708,0.0,0.0,0.0,0.0,79.86,61.43,39.64,19.43,8.96,Closed
389,1322.5303676760636,10455.050820714334,-6668.240626840667,17082.566569157432,0.0,0.0,0.0,0.0,80.39,64.25,39.77,19.93,9.44,Closed
390,1434.3114416970543,10159.91838692646,-6409.854460937317,14460.595185827637,0.0,0.0,0.0,0.0,80.39,64.25,39.77,19.93,9.44,Closed
391,1368.642016487362,9347.343068998229,-6004.930258384974,10680.44581180165,0.0,0.0,0.0,0.0,80.39,64.25,39.77,19.93,9.44,Closed
392,1263.8793902253378,8936.361543698495,-6030.321840086203,10937.580280015503,0.0,0.0,0.0,0.0,80.39,64.25,39.77,19.93,9.44,Closed
393,1220.494654237587,9154.961604471398,-6380.238399534035,14218.14581372092,0.0,0.0,0.0,0.0,80.39,64.25,39.77,19.93,9.44,Closed
394,1167.4092611562326,9519.272687348448,-6792.2034015898,16841.23478427348,0.0,0.0,0.0,0.0,80.39,64.25,39.77,19.93,9.44,Closed
395,1252.904683697782,9278.007957697864,-6610.796643590527,14200.040900712122,0.0,0.0,0.0,0.0,80.39,64.25,39.77,19.93,9.44,Closed
396,1310.393370436832,8651.466208871152,-6162.7335742394425,10425.613573266695,0.0,0.0,0.0,0.0,80.39,64.25,39.77,19.93,9.44,Closed
397,1244.1204481268464,8439.705781901572,-6140.717105950965,10494.233428744486,0.0,0.0,0.0,0.0,80.39,64.25,39.77,19.93,9.44,Closed
398,1175.4111856712325,8832.60474593696,-6471.679386100696,13678.217074658523,0.0,0.0,0.0,0.0,80.39,64.25,39.77,19.93,9.44,Closed
399,1190.2527439895564,9473.742183892988,-6802.954590672803,16471.335765282605,0.0,0.0,0.0,0.0,80.39,64.25,39.77,19.93,9.44,Closed
400,1306.97355353517,9505.347550552791,-6622.576012918475,14060.387201355365,0.0,0.0,0.0,0.0,80.39,64.25,39.77,19.93,9.44,Closed
401,1360.4612780167197,9099.864554389069,-6188.013397218394,10158.219654347857,0.0,0.0,0.0,0.0,80.39,64.25,39.77,19.93,9.44,Closed
402,1322.910347331804,9110.973371383354,-6128.893033134107,10203.2584194253,0.0,0.0,0.0,0.0,80.39,64.25,39.77,19.93,9.44,Closed
403,1189.4033777002546,9634.138302104271,-6524.38479952631,13591.872285827672,0.0,0.0,0.0,0.0,80.39,64.25,39.77,19.93,9.44,Closed
404,1073.7331001440407,10257.953138107436,-6927.185586355399,16493.151067870986,0.0,0.0,0.0,0.0,80.39,64.25,39.77,19.93,9.44,Closed
405,1202.0321133175032,10304.668284019028,-6651.633280710374,13953.501159370086,0.0,0.0,0.0,0.0,80.39,64.25,39.77,19.93,9.44,Closed
406,1159.8320197858834,9804.100966942426,-6284.662340243142,10085.397670912464,0.0,0.0,0.0,0.0,80.39,64.25,39.77,19.93,9.44,Closed
407,1016.9149657386502,9508.230925587526,-6378.651425677708,10237.50129193083,0.0,0.0,0.0,0.0,80.39,64.25,39.77,19.93,9.44,Closed
408,950.5749881952988,9794.46736508219,-6764.800162887593,13515.406968046069,0.0,0.0,0.0,0.0,80.39,64.25,39.77,19.93,9.44,Closed
409,1019.1948436730914,10380.105421555689,-7090.465079601417,16390.6683195434,0.0,0.0,0.0,0.0,80.39,64.25,39.77,19.93,9.44,Closed
410,1077.8234693793618,10159.784276459728,-6878.79405960966,13814.741529791538,0.0,0.0,0.0,0.0,80.39,64.25,39.77,19.93,9.44,Closed
411,984.3931775561784,9373.360499544204,-6466.024394753504,9868.205770040247,0.0,0.0,0.0,0.0,80.39,64.25,39.77,19.93,9.44,Closed
412,918.4555314130224,9042.152350205464,-6445.013754965515,10043.666964014408,0.0,0.0,0.0,0.0,80.39,64.25,39.77,19.93,9.44,Closed
413,985.5554682678544,9415.650000053643,-6727.919784536337,13579.422364166066,0.0,0.0,0.0,0.0,80.39,64.25,39.77,19.93,9.44,Closed
414,999.7488259969743,9867.132886306392,-7066.660471756515,16676.189503215493,0.0,0.0,0.0,0.0,80.39,64.25,39.77,19.93,9.44,Closed
415,1045.2569777079796,9599.42604296518,-6857.559902377117,14150.352972787974,0.0,0.0,0.0,0.0,80.39,64.25,39.77,19.93,9.44,Closed
416,1043.2453207070018,8889.288769875619,-6444.454961354132,10186.293445383722,0.0,0.0,0.0,0.0,78.55,64.5,39.19,19.59,9.17,Closed
417,909.1348539751594,8550.615137888806,-6458.983595250082,10201.49263161333,0.0,0.0,0.0,0.0,78.55,64.5,39.19,19.59,9.17,Closed
418,837.8327891627299,8852.162522335353,-6842.941861503346,13572.225102451455,0.0,0.0,0.0,0.0,78.55,64.5,39.19,19.59,9.17,Closed
419,866.7782982323525,9361.826999405266,-7235.416142394083,16431.169680496416,0.0,0.0,0.0,0.0,78.55,64.5,39.19,19.59,9.17,Closed
420,1006.9684394560384,9305.344141166705,-6970.413860131963,13849.386733697263,0.0,0.0,0.0,0.0,78.55,64.5,39.19,19.59,9.17,Closed
421,1013.562204070354,8732.066599376989,-6560.058183676981,9847.08337152998,0.0,0.0,0.0,0.0,78.55,64.5,39.19,19.59,9.17,Closed
422,1002.6322010317087,8637.026981953024,-6515.913488377749,10040.157740134924,0.0,0.0,0.0,0.0,78.55,64.5,39.19,19.59,9.17,Closed
423,974.7372239514856,9142.9587176989,-6825.842776995037,13527.29809609629,0.0,0.0,0.0,0.0,78.55,64.5,39.19,19.59,9.17,Closed
424,990.3610933257452,9847.642165141364,-7173.591217230704,16598.830115655677,0.0,0.0,0.0,0.0,78.55,64.5,39.19,19.59,9.17,Closed
425,924.244633226947,9770.819219448476,-6971.889075266013,14185.668729027358,0.0,0.0,0.0,0.0,78.55,64.5,39.19,19.59,9.17,Closed
426,983.9461426670722,9341.866891606676,-6461.352880162344,10391.169535061066,0.0,0.0,0.0,0.0,78.55,64.5,39.19,19.59,9.17,Closed
427,1003.7497882544744,9296.671664318046,-6380.014882089482,10400.244343309922,0.0,0.0,0.0,0.0,78.55,64.5,39.19,19.59,9.17,Closed
428,1081.5562107033982,9739.817349888965,-6644.190149806756,13603.897524344628,0.0,0.0,0.0,0.0,80.87,64.83,39.52,19.63,9.45,Closed
429,1216.9854303581037,10235.601393652129,-6936.081580648611,16828.38253121168,0.0,0.0,0.0,0.0,80.87,64.83,39.52,19.63,9.45,Closed
430,1275.6140560643742,10015.615524722996,-6710.820700028026,14282.004747629731,0.0,0.0,0.0,0.0,80.87,64.83,39.52,19.63,9.45,Closed
431,1313.030876282558,9458.185369752096,-6219.216432478003,10343.292098437798,0.0,0.0,0.0,0.0,80.87,64.83,39.52,19.63,9.45,Closed
432,1276.0834426979354,9248.257785827853,-6168.321510353268,10576.130220428731,0.0,0.0,0.0,0.0,80.87,64.83,39.52,19.63,9.45,Closed
433,1216.9183751247376,9538.718705024565,-6519.869747146338,14011.39217750933,0.0,0.0,0.0,0.0,80.87,64.83,39.52,19.63,9.45,Closed
434,1205.7425028970845,10009.066463597592,-6869.138106004966,16766.7587717484,0.0,0.0,0.0,0.0,80.87,64.83,39.52,19.63,9.45,Closed
435,1341.2387777851557,9896.39131979839,-6613.255335480611,14223.040845756632,0.0,0.0,0.0,0.0,80.87,64.83,39.52,19.63,9.45,Closed
436,1390.479670820197,9285.942826979495,-6148.9425479105175,10138.326601782634,0.0,0.0,0.0,0.0,80.87,64.83,39.52,19.63,9.45,Closed
437,1255.7433552436062,9040.07363797112,-6107.614172412655,10273.12997259259,0.0,0.0,0.0,0.0,80.87,64.83,39.52,19.63,9.45,Closed
438,1149.7737347809953,9368.80074367532,-6465.6220633533085,13736.488072453509,0.0,0.0,0.0,0.0,80.87,64.83,39.52,19.63,9.45,Closed
439,1199.3052004939557,9933.137587682912,-6825.9768874617685,16387.695537530846,0.0,0.0,0.0,0.0,80.87,64.83,39.52,19.63,9.45,Closed
440,1278.653893310296,9821.110644472916,-6626.286402498055,14017.740072934635,0.0,0.0,0.0,0.0,80.87,64.83,39.52,19.63,9.45,Closed
441,1194.6783893917072,9133.928612938957,-6211.080397496271,10302.522516551318,0.0,0.0,0.0,0.0,80.87,64.83,39.52,19.63,9.45,Closed
442,1173.935970537182,8931.15358724041,-6158.777315470853,10614.038779024932,0.0,0.0,0.0,0.0,80.87,64.83,39.52,19.63,9.45,Closed
443,1116.2908215869454,9245.240300326384,-6487.303255474956,13871.98434734158,0.0,0.0,0.0,0.0,80.87,64.83,39.52,19.63,9.45,Closed
444,1107.4842342715544,9749.853283149396,-6809.861279709492,16507.83616397812,0.0,0.0,0.0,0.0,80.87,64.83,39.52,19.63,9.45,Closed
445,1241.7288114701284,9649.091619144872,-6572.306939638489,14201.314950146074,0.0,0.0,0.0,0.0,80.87,64.83,39.52,19.63,9.45,Closed
446,1394.4806330776971,9171.166619201496,-6074.377128407613,10472.485181389471,0.0,0.0,0.0,0.0,80.87,64.83,39.52,19.63,9.45,Closed
447,1350.64886220084,8984.708366955325,-6042.257671625337,10488.734899608482,0.0,0.0,0.0,0.0,79.01,64.04,38.31,19.2,8.65,Closed
448,1315.6907338727397,9305.992341755908,-6386.139260070237,13954.037601237012,0.0,0.0,0.0,0.0,79.01,64.04,38.31,19.2,8.65,Closed
449,1329.5935189239406,9878.5322759786,-6746.136456267412,16856.210453058535,0.0,0.0,0.0,0.0,79.01,64.04,38.31,19.2,8.65,Closed
450,1431.003383517669,9820.484795628166,-6504.268229516534,14349.350553673572,0.0,0.0,0.0,0.0,79.01,64.04,38.31,19.2,8.65,Closed
451,1454.159790773367,9234.82438741021,-6051.108962429638,10526.062312848844,0.0,0.0,0.0,0.0,79.01,64.04,38.31,19.2,8.65,Closed
452,1339.160065550812,9023.913326729931,-6069.035061482795,10430.35214309122,0.0,0.0,0.0,0.0,79.01,64.04,38.31,19.2,8.65,Closed
453,1299.2174982091783,9400.584924290768,-6407.440472536144,13719.56780190084,0.0,0.0,0.0,0.0,79.01,64.04,38.31,19.2,8.65,Closed
454,1358.9413593937588,9946.906262267385,-6738.268642219144,16499.49896329629,0.0,0.0,0.0,0.0,79.01,64.04,38.31,19.2,8.65,Closed
455,1535.2966231461314,9928.242555647204,-6460.861141784328,14158.064324625057,0.0,0.0,0.0,0.0,79.01,64.04,38.31,19.2,8.65,Closed
456,1474.835154394526,9305.612362100168,-6053.321785130714,10078.535685364686,0.0,0.0,0.0,0.0,79.01,64.04,38.31,19.2,8.65,Closed
457,1216.4489884911764,8939.9601745558,-6180.704376781509,10329.85870002016,0.0,0.0,0.0,0.0,79.01,64.04,38.31,19.2,8.65,Closed
458,1183.23429623059,9307.445205145505,-6569.669433792763,13881.21561780162,0.0,0.0,0.0,0.0,79.01,64.04,38.31,19.2,8.65,Closed
459,1082.137356059236,9787.65008302332,-7010.222317006865,16630.837813715676,0.0,0.0,0.0,0.0,79.01,64.04,38.31,19.2,8.65,Closed
460,1152.6347580712743,9638.094560872862,-6797.321951070065,14146.84374890849,0.0,0.0,0.0,0.0,79.01,64.04,38.31,19.2,8.65,Closed
461,1165.0846797328809,8970.470305737294,-6355.629128888742,10004.260838539702,0.0,0.0,0.0,0.0,79.01,64.04,38.31,19.2,8.65,Closed
462,1103.1479958472248,8721.91890739428,-6337.501864135488,9924.331000367523,0.0,0.0,0.0,0.0,79.01,64.04,38.31,19.2,8.65,Closed
463,979.8781251762064,9002.58976251957,-6763.9284448538365,13361.112876071082,0.0,0.0,0.0,0.0,79.01,64.04,38.31,19.2,8.65,Closed
464,950.954967851039,9488.06965208884,-7173.546513741793,16569.03524029675,0.0,0.0,0.0,0.0,79.01,64.04,38.31,19.2,8.65,Closed
465,1028.2473001774908,9329.573432156258,-6963.015432717256,14160.03127813712,0.0,0.0,0.0,0.0,79.01,64.04,38.31,19.2,8.65,Closed
466,1194.0972440358692,8859.672708472337,-6417.208184863113,10226.705399358916,0.0,0.0,0.0,0.0,79.01,64.04,38.31,19.2,8.65,Closed
467,1066.915818085172,8660.988052009112,-6342.35219268229,10230.281678471763,0.0,0.0,0.0,0.0,79.01,64.04,38.31,19.2,8.65,Closed
468,1019.3289541398232,9020.02412319471,-6676.9354554337815,13527.141633885103,0.0,0.0,0.0,0.0,79.01,64.04,38.31,19.2,8.65,Closed
469,1064.21125700608,9662.837941984886,-7016.883136854546,16719.171907803047,0.0,0.0,0.0,0.0,79.01,64.04,38.31,19.2,8.65,Closed
470,1167.6774820896962,9695.06915748944,-6729.953793281769,14148.006039620166,0.0,0.0,0.0,0.0,79.01,64.04,38.31,19.2,8.65,Closed
471,1354.9851006251697,9336.32365898176,-6209.001685261927,10099.05458677466,0.0,0.0,0.0,0.0,79.01,64.04,38.31,19.2,8.65,Closed
472,1217.8571483918606,9083.167801280952,-6223.999705791439,10323.175528428024,0.0,0.0,0.0,0.0,79.01,64.04,38.31,19.2,8.65,Closed
473,1128.2490048705347,9362.206979061006,-6597.743224828628,13871.067925818912,0.0,0.0,0.0,0.0,79.01,64.04,38.31,19.2,8.65,Closed
474,1143.9175777337048,9951.48836988072,-6956.667537291949,16740.294306313313,0.0,0.0,0.0,0.0,79.53,69.47,37.24,18.63,8.18,Closed
475,1265.287550126022,9899.542915766588,-6718.420293142831,14263.341041009551,0.0,0.0,0.0,0.0,79.53,69.47,37.24,18.63,8.18,Closed
476,1236.3196893119443,9238.221852567418,-6254.174560806104,10245.324402490189,0.0,0.0,0.0,0.0,79.53,69.47,37.24,18.63,8.18,Closed
477,1249.4178115627542,9016.246678381764,-6135.64325995961,10467.277224931388,0.0,0.0,0.0,0.0,79.53,69.47,37.24,18.63,8.18,Closed
478,1215.3761047573216,9324.141958253618,-6468.572493621408,13785.907779444193,0.0,0.0,0.0,0.0,79.53,69.47,37.24,18.63,8.18,Closed
479,1215.0631803349472,9817.04262698205,-6821.73005601526,16697.602474403677,0.0,0.0,0.0,0.0,79.53,69.47,37.24,18.63,8.18,Closed
480,1284.2194776796673,9601.6165139218,-6645.2183300517,14359.945280545388,0.0,0.0,0.0,0.0,79.53,69.47,37.24,18.63,8.18,Closed
481,1313.455559427209,8900.151717680897,-6231.755761117431,10382.787630890329,0.0,0.0,0.0,0.0,79.53,69.47,37.24,18.63,8.18,Closed
482,1281.6713788117622,8633.115426673345,-6158.330280581747,10404.647636967617,0.0,0.0,0.0,0.0,79.53,69.47,37.24,18.63,8.18,Closed
483,1135.9603567076156,8879.47635405974,-6547.138875381813,13883.249626547056,0.0,0.0,0.0,0.0,79.53,69.47,37.24,18.63,8.18,Closed
484,1076.7952891344178,9326.310077465783,-6945.871644720036,16921.745767801498,0.0,0.0,0.0,0.0,79.53,69.47,37.24,18.63,8.18,Closed
485,1186.430595687699,9270.296605860784,-6715.402807641364,14399.977254864843,0.0,0.0,0.0,0.0,79.53,69.47,37.24,18.63,8.18,Closed
486,1293.9871900066364,8817.539670174083,-6233.722714629497,10262.60230095414,0.0,0.0,0.0,0.0,79.53,69.47,37.24,18.63,8.18,Closed
487,1181.8708398188162,8525.1117974653,-6208.6440573506425,10313.698388778972,0.0,0.0,0.0,0.0,79.53,69.47,37.24,18.63,8.18,Closed
488,1015.3503436267788,8764.9683672152,-6634.9141758578035,13570.504018128398,0.0,0.0,0.0,0.0,79.53,69.47,37.24,18.63,8.18,Closed
489,1136.65326078573,9467.506047189958,-7009.127081528554,16737.522690000857,0.0,0.0,0.0,0.0,79.53,69.47,37.24,18.63,8.18,Closed
490,1276.9104572427818,9507.895649420698,-6742.0907905210015,14486.29969195124,0.0,0.0,0.0,0.0,80.64,68.79,35.91,17.79,7.92,Closed
491,1292.288457428033,8998.812317706623,-6250.263005526424,10542.177920601122,0.0,0.0,0.0,0.0,80.64,68.79,35.91,17.79,7.92,Closed
492,1210.4140174882434,8895.793127512114,-6190.5614960862995,10283.434126786486,0.0,0.0,0.0,0.0,80.64,68.79,35.91,17.79,7.92,Closed
493,1046.6427858642085,9279.46082108746,-6655.254263312133,13612.748815148929,0.0,0.0,0.0,0.0,80.64,68.79,35.91,17.79,7.92,Closed
494,967.0705756033152,9830.90070854434,-7132.151083010564,17064.036973003982,0.0,0.0,0.0,0.0,80.64,68.79,35.91,17.79,7.92,Closed
495,1135.3792113517777,9931.48355859322,-6827.943840973836,14742.115407242229,0.0,0.0,0.0,0.0,80.64,68.79,35.91,17.79,7.92,Closed
496,1332.029859069569,9566.300757682417,-6291.099642646271,10622.48773842904,0.0,0.0,0.0,0.0,80.64,68.79,35.91,17.79,7.92,Closed
497,1200.6910086501848,9359.211845303997,-6305.762387008952,10486.298559462854,0.0,0.0,0.0,0.0,80.64,68.79,35.91,17.79,7.92,Closed
498,1013.8974802371836,9613.194717549648,-6715.715732063739,13711.47647040802,0.0,0.0,0.0,0.0,80.64,68.79,35.91,17.79,7.92,Closed
499,1036.4727421370435,10100.2839327197,-7090.956817979434,16667.49467462238,0.0,0.0,0.0,0.0,80.64,68.79,35.91,17.79,7.92,Closed
500,1254.6257680208407,10121.898069607982,-6817.930259457858,14347.651821094969,0.0,0.0,0.0,0.0,80.64,68.79,35.91,17.79,7.92,Closed
501,1356.5497227370408,9703.384006426812,-6341.905157793183,10351.38342993062,0.0,0.0,0.0,0.0,80.64,68.79,35.91,17.79,7.92,Closed
502,1198.455834204654,9447.948270791563,-6308.757520765963,10294.364129825131,0.0,0.0,0.0,0.0,80.64,68.79,35.91,17.79,7.92,Closed
503,954.8218196418072,9569.966443773084,-6763.727279153738,13627.210393811512,0.0,0.0,0.0,0.0,80.64,68.79,35.91,17.79,7.92,Closed
504,987.8576979467508,10089.890371547985,-7112.347437423163,16964.527006688953,0.0,0.0,0.0,0.0,80.64,68.79,35.91,17.79,7.92,Closed
505,1251.7870964750168,10173.82117197766,-6779.597017717007,14682.592711757748,0.0,0.0,0.0,0.0,80.33,70.15,35.13,17.41,8.37,Closed
506,1292.8696027838712,9629.980877635584,-6307.997561454483,10438.555233306315,0.0,0.0,0.0,0.0,80.33,70.15,35.13,17.41,8.37,Closed
507,1280.285570655533,9371.929987899064,-6252.676993927597,10246.576100179684,0.0,0.0,0.0,0.0,80.33,70.15,35.13,17.41,8.37,Closed
508,1103.595030736331,9543.121998682262,-6649.018126609102,13588.139544503636,0.0,0.0,0.0,0.0,80.33,70.15,35.13,17.41,8.37,Closed
509,1167.297502433956,10000.21517279329,-7005.5284506712505,16696.50723892537,0.0,0.0,0.0,0.0,80.33,70.15,35.13,17.41,8.37,Closed
510,1375.1463741238565,9937.093846451504,-6773.539694969618,14362.202806735377,0.0,0.0,0.0,0.0,80.33,70.15,35.13,17.41,8.37,Closed
511,1383.1035951499457,9514.6458762462,-6304.778910252919,10583.796868776904,0.0,0.0,0.0,0.0,80.33,70.15,35.13,17.41,8.37,Closed
512,1167.3869094117772,9188.846849065643,-6304.890668975195,10290.899609434558,0.0,0.0,0.0,0.0,80.33,70.15,35.13,17.41,8.37,Closed
513,1104.26558306999,9287.55215258028,-6708.13849069339,13570.816942550771,0.0,0.0,0.0,0.0,80.33,70.15,35.13,17.41,8.37,Closed
514,1254.9163406987598,9980.635044650442,-7036.44091325294,16789.401088881623,0.0,0.0,0.0,0.0,80.33,70.15,35.13,17.41,8.37,Closed
515,1273.065957196469,9834.119359745904,-6864.064260013612,14404.313493289172,0.0,0.0,0.0,0.0,80.33,70.15,35.13,17.41,8.37,Closed
516,1286.58876259193,9216.920640101507,-6441.571586319397,10353.730363098426,0.0,0.0,0.0,0.0,80.33,70.15,35.13,17.41,8.37,Closed
517,1302.7714255775722,9127.46895879137,-6315.753616780475,10240.16114952101,0.0,0.0,0.0,0.0,80.33,70.15,35.13,17.41,8.37,Closed
518,1273.5576955744857,9463.34862272127,-6666.787763451071,13240.18993856787,0.0,0.0,0.0,0.0,80.33,70.15,35.13,17.41,8.37,Closed
519,1146.1751039236908,9930.790654515107,-7111.699236833959,16283.670518835846,0.0,0.0,0.0,0.0,80.33,70.15,35.13,17.41,8.37,Closed
520,1226.7531426850728,9905.15320362487,-6822.44531183783,14466.496046363836,0.0,0.0,0.0,0.0,80.33,70.15,35.13,17.41,8.37,Closed
521,1288.712178315184,9424.993029235964,-6335.512558878966,10456.660146315116,0.0,0.0,0.0,0.0,80.33,70.15,35.13,17.41,8.37,Closed
522,1295.194184207223,9290.346120637194,-6233.990935562961,10258.735449163372,0.0,0.0,0.0,0.0,80.33,70.15,35.13,17.41,8.37,Closed
523,1139.3354701203668,9502.017140628952,-6649.9345481317705,13213.747824877242,0.0,0.0,0.0,0.0,80.33,70.15,35.13,17.41,8.37,Closed
524,1264.482887325631,10108.643485145984,-6974.660691578471,16489.172457357938,0.0,0.0,0.0,0.0,80.6,71.91,33.87,17.13,7.35,Closed
525,1252.904683697782,9967.536922399631,-6808.274305853165,14261.374087497485,0.0,0.0,0.0,0.0,80.6,71.91,33.87,17.13,7.35,Closed
526,1249.909549940771,9379.306063569316,-6344.609718872276,10212.914373029991,0.0,0.0,0.0,0.0,80.6,71.91,33.87,17.13,7.35,Closed
527,1168.5044966345426,9076.149353521983,-6340.16172172567,10184.080622682646,0.0,0.0,0.0,0.0,80.6,71.91,33.87,17.13,7.35,Closed
528,1156.4122028842214,9422.57904083479,-6663.882036671882,13440.349810165146,0.0,0.0,0.0,0.0,80.6,71.91,33.87,17.13,7.35,Closed
529,1070.045062308915,9892.703281963264,-7042.29707030023,16279.669556578348,0.0,0.0,0.0,0.0,80.6,71.91,33.87,17.13,7.35,Closed
530,1251.2059511191787,9880.834505657496,-6769.2705117786545,14148.408371020363,0.0,0.0,0.0,0.0,80.6,71.91,33.87,17.13,7.35,Closed
531,1282.8560212678935,9256.617338254136,-6307.3717126097345,10379.658386666582,0.0,0.0,0.0,0.0,80.6,71.91,33.87,17.13,7.35,Closed
532,1256.8609424663714,8994.654893237936,-6241.814046122318,10465.377326652686,0.0,0.0,0.0,0.0,80.6,71.91,33.87,17.13,7.35,Closed
533,1239.5159887690531,9384.312854327303,-6572.709271038684,13549.739247529418,0.0,0.0,0.0,0.0,80.6,71.91,33.87,17.13,7.35,Closed
534,1263.164134402768,10036.246184855245,-6937.46738880484,16601.28880754576,0.0,0.0,0.0,0.0,80.6,71.91,33.87,17.13,7.35,Closed
535,1241.840570192405,9991.4085854779,-6793.902134168403,14484.623311117091,0.0,0.0,0.0,0.0,80.6,71.91,33.87,17.13,7.35,Closed
536,1322.2621467426,9513.68475123462,-6306.477642831522,10577.448973351597,0.0,0.0,0.0,0.0,80.6,71.91,33.87,17.13,7.35,Closed
537,1288.2874951705332,9394.393491076647,-6221.339848201257,10450.02167821189,0.0,0.0,0.0,0.0,80.6,71.91,33.87,17.13,7.35,Closed
538,1265.131087914835,9831.012467266615,-6528.095189105891,13701.798165058872,0.0,0.0,0.0,0.0,80.6,71.91,33.87,17.13,7.35,Closed
539,1190.2527439895564,10418.68453248555,-6892.406271982941,16433.53896540868,0.0,0.0,0.0,0.0,80.6,71.91,33.87,17.13,7.35,Closed
540,1282.3419311454215,10427.49111980094,-6694.816850998027,14166.312118329064,0.0,0.0,0.0,0.0,80.6,71.91,33.87,17.13,7.35,Closed
541,1390.9267057093032,9958.037431006123,-6233.454493696034,10358.200711989488,0.0,0.0,0.0,0.0,80.6,71.91,33.87,17.13,7.35,Closed
542,1348.1007633329348,9776.228341606658,-6196.618818833687,9994.515477957188,0.0,0.0,0.0,0.0,80.6,71.91,33.87,17.13,7.35,Closed
543,1134.5521968069313,9999.634027437452,-6629.728571144173,13187.685690842354,0.0,0.0,0.0,0.0,80.6,71.91,33.87,17.13,7.35,Closed
544,1104.3773417922666,10457.174236437588,-7045.493369757339,16315.409995962382,0.0,0.0,0.0,0.0,80.6,71.91,33.87,17.13,7.35,Closed
545,1303.2184604666784,10473.960396523524,-6773.0256048471465,13887.809382415937,0.0,0.0,0.0,0.0,80.6,71.91,33.87,17.13,7.35,Closed
546,1656.8007060051807,10280.595455240662,-6124.065056331761,9652.265566857526,0.0,0.0,0.0,0.0,80.6,71.91,33.87,17.13,7.35,Closed
547,1663.9085607419684,10054.66402228642,-6008.752406686832,9661.005098939551,0.0,0.0,0.0,0.0,80.6,71.91,33.87,17.13,7.35,Closed
548,1327.8500828564268,10039.442484312354,-6460.816438295417,13428.682199559476,0.0,0.0,0.0,0.0,80.6,71.91,33.87,17.13,7.35,Closed
549,1288.3321986594435,10455.341393392251,-6850.4520476403295,16613.492860018356,0.0,0.0,0.0,0.0,82.99,68.45,35.7,17.79,7.79,Closed
550,1456.3949652188976,10469.870027288203,-6603.487623153642,14360.392315434494,0.0,0.0,0.0,0.0,82.99,68.45,35.7,17.79,7.79,Closed
551,1643.65788026546,10026.41141729491,-6055.691070042976,10284.574065753706,0.0,0.0,0.0,0.0,82.99,68.45,35.7,17.79,7.79,Closed
552,1546.4948471182404,9724.998143315095,-5991.876839623075,10068.18682768188,0.0,0.0,0.0,0.0,82.99,68.45,35.7,17.79,7.79,Closed
553,1305.7665593345832,9908.170689126337,-6423.645487266242,13348.64060266502,0.0,0.0,0.0,0.0,82.99,68.45,35.7,17.79,7.79,Closed
554,1306.325352945966,10418.34925631872,-6801.099395883012,16322.428443721348,0.0,0.0,0.0,0.0,82.99,68.45,35.7,17.79,7.79,Closed
555,1487.8215179230592,10433.727256503971,-6533.0125728860585,13965.436990909218,0.0,0.0,0.0,0.0,82.99,68.45,35.7,17.79,7.79,Closed
556,1601.4354349893852,9891.697453462775,-6051.354831618647,10146.194415830902,0.0,0.0,0.0,0.0,82.99,68.45,35.7,17.79,7.79,Closed
557,1444.4367819353083,9580.09178401134,-6074.131259218605,10082.246074944267,0.0,0.0,0.0,0.0,82.99,68.45,35.7,17.79,7.79,Closed
558,1305.006600023103,9775.669547995276,-6428.428760579677,13121.368065043458,0.0,0.0,0.0,0.0,82.99,68.45,35.7,17.79,7.79,Closed
559,1353.4651820022086,10243.2680420003,-6758.698136651295,16179.95842456322,0.0,0.0,0.0,0.0,82.99,68.45,35.7,17.79,7.79,Closed
560,1474.8575061389813,10146.842616420105,-6557.264215620067,13893.75494644105,0.0,0.0,0.0,0.0,82.99,68.45,35.7,17.79,7.79,Closed
561,1629.3304120696084,9702.82521281543,-6046.348040860658,9969.727393356252,0.0,0.0,0.0,0.0,82.99,68.45,35.7,17.79,7.79,Closed
562,1527.8087887536035,9478.100774061772,-5994.022607090785,9840.08727551547,0.0,0.0,0.0,0.0,82.99,68.45,35.7,17.79,7.79,Closed
563,1405.1200634384231,9722.427692702737,-6373.331710497345,13067.209788228249,0.0,0.0,0.0,0.0,83.04,66.44,35.48,17.02,7.2,Closed
564,1533.284966145154,10396.265732796875,-6653.644937711351,16200.857305628931,0.0,0.0,0.0,0.0,83.04,66.44,35.48,17.02,7.2,Closed
565,1734.0930383316324,10508.337379495786,-6402.567792244887,13827.750245064528,0.0,0.0,0.0,0.0,83.04,66.44,35.48,17.02,7.2,Closed
566,1603.6929611793712,9867.579921195498,-6038.636689023578,9982.087908040035,0.0,0.0,0.0,0.0,83.04,66.44,35.48,17.02,7.2,Closed
567,1575.797984099148,9779.715213741689,-5979.806897617209,10043.55520529213,0.0,0.0,0.0,0.0,83.04,66.44,35.48,17.02,7.2,Closed
568,1555.413193155908,10232.583908150662,-6322.794416283896,12965.889330612345,0.0,0.0,0.0,0.0,83.04,66.44,35.48,17.02,7.2,Closed
569,1515.3588670919976,10806.107319129387,-6684.624455526407,16373.591586779548,0.0,0.0,0.0,0.0,83.04,66.44,35.48,17.02,7.2,Closed
570,1506.06054139859,10754.854769093368,-6577.11256469638,14301.271951350209,0.0,0.0,0.0,0.0,83.04,66.44,35.48,17.02,7.2,Closed
571,1550.6075680980168,10253.169864794,-6122.433378986523,10229.678181371472,0.0,0.0,0.0,0.0,83.04,66.44,35.48,17.02,7.2,Closed
572,1509.7709309781708,10028.22190859579,-6025.113883628116,10003.59028620604,0.0,0.0,0.0,0.0,83.04,66.44,35.48,17.02,7.2,Closed
573,1335.583786437963,10266.2232835559,-6426.595917534342,13128.766492458164,0.0,0.0,0.0,0.0,83.04,66.44,35.48,17.02,7.2,Closed
574,1276.5751810759523,10736.772207829024,-6833.464721854297,16067.8420743754,0.0,0.0,0.0,0.0,83.04,66.44,35.48,17.02,7.2,Closed
575,1396.2687726341217,10597.029101494443,-6625.2805739975665,13878.868684633817,0.0,0.0,0.0,0.0,83.04,66.44,35.48,17.02,7.2,Closed
576,1446.7613633586602,9949.63317509093,-6196.8423362782405,10111.325694480622,0.0,0.0,0.0,0.0,83.04,66.44,35.48,17.02,7.2,Closed
577,1356.415612270309,9663.754363507553,-6186.135850684149,10055.334574620078,0.0,0.0,0.0,0.0,83.04,66.44,35.48,17.02,7.2,Closed
578,1207.5082907090534,9895.854877931462,-6548.748200982595,13111.55564922758,0.0,0.0,0.0,0.0,83.04,66.44,35.48,17.02,7.2,Closed
579,1222.349849027377,10349.550586885283,-6900.676417431405,16067.305632508474,0.0,0.0,0.0,0.0,83.04,66.44,35.48,17.02,7.2,Closed
580,1318.484701929653,10103.56963915463,-6683.328054347999,13763.690145455615,0.0,0.0,0.0,0.0,83.04,66.44,35.48,17.02,7.2,Closed
581,1361.2212373282,9300.449109130992,-6223.351505202235,9881.885037646894,0.0,0.0,0.0,0.0,82.01,68.98,34.88,16.78,6.69,Closed
582,1236.9231864122376,8858.845693927491,-6190.136812941649,10272.548827236751,0.0,0.0,0.0,0.0,82.01,68.98,34.88,16.78,6.69,Closed
583,1133.1887403951575,9077.13283027802,-6550.312823094467,13442.875557288597,0.0,0.0,0.0,0.0,82.01,68.98,34.88,16.78,6.69,Closed
584,1044.1840939741248,9602.242362766548,-6918.222536828821,16136.506633342104,0.0,0.0,0.0,0.0,82.01,68.98,34.88,16.78,6.69,Closed
585,1288.712178315184,9440.035753254384,-6631.002620578125,13697.417223145632,0.0,0.0,0.0,0.0,82.01,68.98,34.88,16.78,6.69,Closed
586,1428.8576160499592,8699.209535027687,-6229.632345394176,9765.499504268111,0.0,0.0,0.0,0.0,82.01,68.98,34.88,16.78,6.69,Closed
587,1157.2839209179783,8217.752959460373,-6280.504915774455,10036.357943577525,0.0,0.0,0.0,0.0,82.01,68.98,34.88,16.78,6.69,Closed
588,1180.105052006847,8461.945767634603,-6569.200047159201,13229.95283960734,0.0,0.0,0.0,0.0,82.01,68.98,34.88,16.78,6.69,Closed
589,1248.5460935289973,9086.900542604988,-6915.339161794086,16124.95078145871,0.0,0.0,0.0,0.0,82.01,68.98,34.88,16.78,6.69,Closed
590,1340.4788184736751,9290.100251448184,-6646.671193441295,13674.506685078944,0.0,0.0,0.0,0.0,82.01,68.98,34.88,16.78,6.69,Closed
591,1297.1387859748347,8834.281126771108,-6178.424498847067,9511.851908189286,0.0,0.0,0.0,0.0,82.01,68.98,34.88,16.78,6.69,Closed
592,1282.386634634332,8490.891276704226,-6146.439152531523,9494.59636146979,0.0,0.0,0.0,0.0,82.01,68.98,34.88,16.78,6.69,Closed
593,1315.9142513172926,8815.773882362113,-6502.14481379328,12940.6542111223,0.0,0.0,0.0,0.0,82.01,68.98,34.88,16.78,6.69,Closed
594,1245.550959771986,9574.079164752862,-6872.937902562368,16029.419425656728,0.0,0.0,0.0,0.0,82.01,68.98,34.88,16.78,6.69,Closed
595,1226.1272938403242,9939.97722148624,-6567.925997725249,13632.4183502696,0.0,0.0,0.0,0.0,82.01,68.98,34.88,16.78,6.69,Closed
596,1215.554918712964,9615.295781528448,-6114.342047493702,9571.374603673768,0.0,0.0,0.0,0.0,82.01,68.98,34.88,16.78,6.69,Closed
597,1311.041571026036,9295.911705006563,-6216.444816165545,9614.558173961424,0.0,0.0,0.0,0.0,82.01,68.98,34.88,16.78,6.69,Closed
598,1355.722708192195,9570.391126917735,-6563.857980234383,12914.79324278751,0.0,0.0,0.0,0.0,82.01,68.98,34.88,16.78,6.69,Closed
599,1284.845326524416,10289.334987322689,-6875.5754084080945,15762.003154993434,0.0,0.0,0.0,0.0,82.01,68.98,34.88,16.78,6.69,Closed
600,1119.531824532965,10499.016702057925,-6738.894491063892,13417.975713965385,0.0,0.0,0.0,0.0,82.01,68.98,34.88,16.78,6.69,Closed
601,810.0942742936938,10348.567110129252,-6263.450534755056,9246.9837363939,0.0,0.0,0.0,0.0,82.01,68.98,34.88,16.78,6.69,Closed
602,660.5611038876896,9971.44847767931,-6286.584590266299,9115.443720274416,0.0,0.0,0.0,0.0,82.01,68.98,34.88,16.78,6.69,Closed
603,1082.718501415074,9952.717715825764,-6783.352110785498,12628.333285848295,0.0,0.0,0.0,0.0,82.01,68.98,34.88,16.78,6.69,Closed
604,1072.4143472211776,10446.221881654488,-7175.938150398511,15989.678024015191,0.0,0.0,0.0,0.0,82.01,68.98,34.88,16.78,6.69,Closed
605,1048.5203323984542,10493.249951988451,-6961.696679794393,13737.784473631917,0.0,0.0,0.0,0.0,82.01,68.98,34.88,16.78,6.69,Closed
606,1109.272373827979,10126.211956287856,-6443.426781109189,9936.266831906656,0.0,0.0,0.0,0.0,82.01,68.98,34.88,16.78,6.69,Closed
607,1057.259864480479,10125.29553476519,-6301.537907306899,10236.964850063903,0.0,0.0,0.0,0.0,83.21,63.68,34.62,16.3,4.9,Closed
608,1013.9421837260944,10743.276565465518,-6528.4304652727205,13492.116450323636,0.0,0.0,0.0,0.0,83.21,63.68,34.62,16.3,4.9,Closed
609,1130.014792682504,11527.37576095769,-6797.634875492439,16437.159948010438,0.0,0.0,0.0,0.0,83.21,63.68,34.62,16.3,4.9,Closed
610,1283.7724427905612,11723.534670297466,-6577.961930985682,14200.107955945488,0.0,0.0,0.0,0.0,83.21,63.68,34.62,16.3,4.9,Closed
611,1281.6043235783964,11180.11905910004,-6359.0265940459485,10179.476163324853,0.0,0.0,0.0,0.0,83.21,63.68,34.62,16.3,4.9,Closed
612,1333.3709637368877,11127.34659044106,-6351.203483486591,10105.022502544223,0.0,0.0,0.0,0.0,83.21,63.68,34.62,16.3,4.9,Closed
613,1211.8892326222935,11864.417715599266,-6675.571999022008,13192.267798455692,0.0,0.0,0.0,0.0,83.21,63.68,34.62,16.3,4.9,Closed
614,1043.2229689625465,12841.8818523743,-7093.817841269713,16361.767513962688,0.0,0.0,0.0,0.0,83.21,63.68,34.62,16.3,4.9,Closed
615,1094.3190567873785,13165.311594642591,-6875.307187474631,14266.671450933392,0.0,0.0,0.0,0.0,83.21,63.68,34.62,16.3,4.9,Closed
616,1130.6406415272525,12885.22188487314,-6477.446136170165,10286.362205310132,0.0,0.0,0.0,0.0,83.21,63.68,34.62,16.3,4.9,Closed
617,1036.4727421370435,12835.779826138,-6518.14866282328,9969.3027102116,0.0,0.0,0.0,0.0,83.21,63.68,34.62,16.3,4.9,Closed
618,817.6268121751324,13268.017860414728,-6999.694645368415,12775.228950408571,0.0,0.0,0.0,0.0,83.21,63.68,34.62,16.3,4.9,Closed
619,716.5522237482338,13870.330318251888,-7514.8576515743325,15450.06220937517,0.0,0.0,0.0,0.0,83.41,67.59,35.24,15.86,4.35,Closed
620,725.4929215303566,13812.886335001747,-7411.927868357643,12867.631061986813,0.0,0.0,0.0,0.0,83.41,67.59,35.24,15.86,4.35,Closed
621,765.5248958498116,13262.72049697882,-7083.40192835354,8717.448558503218,0.0,0.0,0.0,0.0,83.41,67.59,35.24,15.86,4.35,Closed
622,790.8941258065851,12957.596833419424,-7117.331876436696,8683.585665653429,0.0,0.0,0.0,0.0,83.41,67.59,35.24,15.86,4.35,Closed
623,949.3009387613464,13209.925676575383,-7346.50431233696,11988.872228726415,0.0,0.0,0.0,0.0,83.41,67.59,35.24,15.86,4.35,Closed
624,1048.162704487169,13665.431876830087,-7627.17516746225,15319.08098686707,0.0,0.0,0.0,0.0,83.41,67.59,35.24,15.86,4.35,Closed
625,1202.9932383290814,13513.976456400927,-7325.873652204711,13579.891750799628,0.0,0.0,0.0,0.0,83.41,67.59,35.24,15.86,4.35,Closed
626,1498.930334917347,12998.947560661742,-6580.644140320318,9988.055823809604,0.0,0.0,0.0,0.0,83.41,67.59,35.24,15.86,4.35,Closed
627,1690.9765232773452,12861.283166561503,-6233.789769862863,10251.292318259755,0.0,0.0,0.0,0.0,83.41,67.59,35.24,15.86,4.35,Closed
628,1735.657660443504,13150.447684579813,-6438.397638606744,13548.196977162002,0.0,0.0,0.0,0.0,83.41,67.59,35.24,15.86,4.35,Closed
629,1834.4300191915056,13516.05516863527,-6760.866255863459,16883.4348778051,0.0,0.0,0.0,0.0,83.41,67.59,35.24,15.86,4.35,Closed
630,2080.925057044632,13308.988608001306,-6449.70762130113,15019.969942566153,0.0,0.0,0.0,0.0,83.41,67.59,35.24,15.86,4.35,Closed
631,2291.143213646795,12636.31285861884,-5824.797549819655,11274.063441045697,0.0,0.0,0.0,0.0,83.41,67.59,35.24,15.86,4.35,Closed
632,2377.8679821333867,12275.66746183246,-5683.623931839935,11167.624433949522,0.0,0.0,0.0,0.0,83.41,67.59,35.24,15.86,4.35,Closed
633,2490.811346866053,12569.928177586578,-5925.760379524277,14481.896398293544,0.0,0.0,0.0,0.0,83.41,67.59,35.24,15.86,4.35,Closed
634,2693.6310760535093,13256.618470742522,-6167.7850684863415,17769.23451056892,0.0,0.0,0.0,0.0,83.41,67.59,35.24,15.86,4.35,Closed
635,2966.948207253004,13348.5511956872,-5907.051969415184,15796.335434476789,0.0,0.0,0.0,0.0,83.41,67.59,35.24,15.86,4.35,Closed
636,2971.105631721691,12780.347499888838,-5531.1403311658305,11774.38488893329,0.0,0.0,0.0,0.0,83.41,67.59,35.24,15.86,4.35,Closed
637,2716.832186798118,12437.427036455518,-5661.182780406807,11360.743506043376,0.0,0.0,0.0,0.0,83.41,67.59,35.24,15.86,4.35,Closed
638,2361.819429614476,12648.44985585807,-6362.178190014147,14234.462587173295,0.0,0.0,0.0,0.0,83.41,67.59,35.24,15.86,4.35,Closed
639,2277.888629184798,13251.186996839882,-6917.619039728527,17227.137652294357,0.0,0.0,0.0,0.0,84.68,73.49,36.79,16.56,9.3,Closed
640,2459.29538718407,13349.109989298582,-6643.0725625839905,15231.238631157714,0.0,0.0,0.0,0.0,84.68,73.49,36.79,16.56,9.3,Closed
641,2607.733322111764,12876.616463257846,-6137.923137894051,11460.521693291868,0.0,0.0,0.0,0.0,84.68,73.49,36.79,16.56,9.3,Closed
642,2665.087898384082,12708.7995658874,-6042.838816981175,11408.710349644463,0.0,0.0,0.0,0.0,84.68,73.49,36.79,16.56,9.3,Closed
643,2646.871226653007,13031.022313955107,-6403.595972489831,14473.67095633399,0.0,0.0,0.0,0.0,84.68,73.49,36.79,16.56,9.3,Closed
644,2713.5911838520988,13656.066495903313,-6795.287942324632,17528.193298362887,0.0,0.0,0.0,0.0,84.68,73.49,36.79,16.56,9.3,Closed
645,2945.691698276007,13607.384396479654,-6582.611093832385,15614.414586355042,0.0,0.0,0.0,0.0,84.68,73.49,36.79,16.56,9.3,Closed
646,3085.077176699302,12926.997295260107,-6136.783198926831,11647.896367060706,0.0,0.0,0.0,0.0,84.68,73.49,36.79,16.56,9.3,Closed
647,3005.7061321385067,12512.104214680698,-6138.370172783158,11502.386510656655,0.0,0.0,0.0,0.0,84.68,73.49,36.79,16.56,9.3,Closed
648,2792.2022691014135,12600.795936679357,-6595.150422471813,14553.131407872608,0.0,0.0,0.0,0.0,84.68,73.49,36.79,16.56,9.3,Closed
649,2600.7595778417085,12946.42096119177,-7123.299792206263,17431.20907917131,0.0,0.0,0.0,0.0,84.68,73.49,36.79,16.56,9.3,Closed
650,2579.8606967759965,12689.822934844844,-7040.330116788164,15223.63903804291,0.0,0.0,0.0,0.0,84.68,73.49,36.79,16.56,9.3,Closed
651,2640.2104068053254,12005.412519623342,-6587.64023633483,11331.239203362373,0.0,0.0,0.0,0.0,84.68,73.49,36.79,16.56,9.3,Closed
652,2610.907269824418,11672.148009794711,-6471.18764772268,11240.334658662638,0.0,0.0,0.0,0.0,84.68,73.49,36.79,16.56,9.3,Closed
653,2641.61856670601,11898.012387515591,-6718.330886165009,14441.305630362704,0.0,0.0,0.0,0.0,84.68,73.49,36.79,16.56,9.3,Closed
654,2653.420287778412,12291.134868995532,-7170.394917773595,17567.934700004425,0.0,0.0,0.0,0.0,84.68,73.49,36.79,16.56,9.3,Closed
655,2453.8862650258857,11905.388463185844,-7323.012628914432,15319.058635122614,0.0,0.0,0.0,0.0,84.68,73.49,36.79,16.56,9.3,Closed
656,2142.772333952467,10956.17693140232,-7270.351918977728,10968.984480975208,0.0,0.0,0.0,0.0,84.68,73.49,36.79,16.56,9.3,Closed
657,1790.0841581921768,10444.59020430925,-7476.47970634457,10482.901094305647,0.0,0.0,0.0,0.0,84.68,73.49,36.79,16.56,9.3,Closed
658,1369.4019757988426,10493.540524666372,-8100.383949325556,13353.669745167464,0.0,0.0,0.0,0.0,84.68,73.49,36.79,16.56,9.3,Closed
659,1056.7904778469178,10828.369656606872,-8737.453369790717,16169.140180246852,0.0,0.0,0.0,0.0,84.68,73.49,36.79,16.56,9.3,Closed
660,1081.4891554700323,10770.500990212082,-8584.880362138792,13971.226092723144,0.0,0.0,0.0,0.0,84.68,73.49,36.79,16.56,9.3,Closed
661,1130.7971037384395,10205.11361421509,-8134.492711364354,10052.451199585345,0.0,0.0,0.0,0.0,84.68,73.49,36.79,16.56,9.3,Closed
662,1109.4511877836214,9979.428050449857,-8029.305401957679,10007.16656531889,0.0,0.0,0.0,0.0,84.68,73.49,36.79,16.56,9.3,Closed
663,1143.425839355688,10419.265677841388,-8225.777235719828,13290.079032192116,0.0,0.0,0.0,0.0,84.68,73.49,36.79,16.56,9.3,Closed
664,1285.582934091441,11176.16280033145,-8432.128540531223,16526.522222342755,0.0,0.0,0.0,0.0,84.68,73.49,36.79,16.56,9.3,Closed
665,1476.735052673227,11278.89141784804,-8173.317691483223,14439.696304761925,0.0,0.0,0.0,0.0,148.86,148.23,153.93,160.05,161.49,Open
666,1587.8455743605584,10797.144269602808,-7697.627865985378,10394.2540757959,0.0,0.0,0.0,0.0,148.86,148.23,153.93,160.05,161.49,Open
667,1613.9077083954464,10653.53431147746,-7596.039187436008,10216.44594865393,0.0,0.0,0.0,0.0,148.86,148.23,153.93,160.05,161.49,Open
668,1730.047372585222,11265.74859210832,-7741.012601973129,13385.878608927562,0.0,0.0,0.0,0.0,148.86,148.23,153.93,160.05,161.49,Open
669,1962.8631428317003,12233.512071789752,-7855.230016139748,16563.51435941629,0.0,0.0,0.0,0.0,148.86,148.23,153.93,160.05,161.49,Open
670,2260.856599909854,12585.887323127668,-7484.727500048578,14655.61415620019,0.0,0.0,0.0,0.0,148.86,148.23,153.93,160.05,161.49,Open
671,2512.2243180542373,12420.17148973602,-6879.799888110148,10895.268427761606,0.0,0.0,0.0,0.0,148.86,148.23,153.93,160.05,161.49,Open
672,2642.8926161399622,12547.844654064736,-6619.379713461365,10931.187681101284,0.0,0.0,0.0,0.0,148.86,148.23,153.93,160.05,161.49,Open
673,2601.653647619921,13031.49170058867,-6851.793152307649,14040.002410412124,0.0,0.0,0.0,0.0,148.86,148.23,153.93,160.05,161.49,Open
674,2632.5661102016106,13701.418185403132,-7109.709931577437,17091.015528561536,0.0,0.0,0.0,0.0,148.86,148.23,153.93,160.05,161.49,Open
675,2704.784596536708,13679.066440947823,-6885.588989924073,15060.761876197086,0.0,0.0,0.0,0.0,148.86,148.23,153.93,160.05,161.49,Open
676,2617.3222204830913,12970.09145856994,-6535.225395587135,10899.135279552374,0.0,0.0,0.0,0.0,148.86,148.23,153.93,160.05,161.49,Open
677,2363.540513937535,12474.575635740235,-6623.090103040946,10481.917617549612,0.0,0.0,0.0,0.0,148.86,148.23,153.93,160.05,161.49,Open
678,2018.742503969968,12383.380518362585,-7188.209258104474,13602.26584699939,0.0,0.0,0.0,0.0,148.86,148.23,153.93,160.05,161.49,Open
679,1735.791770910236,12453.117961063144,-7800.9599806022625,16662.5325873533,0.0,0.0,0.0,0.0,148.86,148.23,153.93,160.05,161.49,Open
680,1632.1690836154323,11889.362262411389,-7809.028960350628,14517.368616744116,0.0,0.0,0.0,0.0,162.16,158.58,162.21,172.19,174.07,Open
681,1559.9729490247903,10739.8343968194,-7488.639055328257,10505.40930097214,0.0,0.0,0.0,0.0,162.16,158.58,162.21,172.19,174.07,Open
682,1280.8443642669158,9788.4100423348,-7612.445367866203,10225.677219113972,0.0,0.0,0.0,0.0,162.16,158.58,162.21,172.19,174.07,Open
683,952.988976596472,9422.355523390235,-8145.601528358642,13220.073368558094,0.0,0.0,0.0,0.0,162.16,158.58,162.21,172.19,174.07,Open
684,711.8807091570746,9353.065115578784,-8697.041415815524,16089.791487430512,0.0,0.0,0.0,0.0,162.16,158.58,162.21,172.19,174.07,Open
685,674.6650546389884,8788.325940170997,-8649.700421059182,13903.433251790197,0.0,0.0,0.0,0.0,162.16,158.58,162.21,172.19,174.07,Open
686,687.3608454896028,7854.581815550544,-8258.544893091308,9875.648900943865,0.0,0.0,0.0,0.0,162.16,158.58,162.21,172.19,174.07,Open
687,613.8459579760979,7368.051393991876,-8180.604360175653,9699.338340680402,0.0,0.0,0.0,0.0,162.16,158.58,162.21,172.19,174.07,Open
688,558.8159631271319,7604.577553817935,-8443.013840080957,12846.910994876742,0.0,0.0,0.0,0.0,162.16,158.58,162.21,172.19,174.07,Open
689,674.6203511500778,8323.07437933378,-8675.539037649518,15986.749945491549,0.0,0.0,0.0,0.0,162.16,158.58,162.21,172.19,174.07,Open
690,980.1016426207594,8605.511022271041,-8300.007379055904,14134.684399924805,0.0,0.0,0.0,0.0,162.16,158.58,162.21,172.19,174.07,Open
691,1269.2438088946114,8454.681450686629,-7653.37141196387,10529.683295450604,0.0,0.0,0.0,0.0,162.16,158.58,162.21,172.19,174.07,Open
692,1398.2357261461889,8661.949177020691,-7429.295173799417,10595.419775893664,0.0,0.0,0.0,0.0,162.16,158.58,162.21,172.19,174.07,Open
693,1490.5484307466068,9456.01725053993,-7581.398794817781,13749.139159815211,0.0,0.0,0.0,0.0,162.16,158.58,162.21,172.19,174.07,Open
694,1650.206941390865,10508.784414384892,-7767.521770897123,16904.378462359724,0.0,0.0,0.0,0.0,162.16,158.58,162.21,172.19,174.07,Open
695,1931.0789622162536,10977.07581246803,-7399.813222862867,15067.73562046714,0.0,0.0,0.0,0.0,162.16,158.58,162.21,172.19,174.07,Open
696,2169.9520552101203,10894.10613704993,-6791.778718445149,11323.86312769212,0.0,0.0,0.0,0.0,162.16,158.58,162.21,172.19,174.07,Open
697,2141.8112089408887,10938.362591071438,-6677.829525211993,11142.568128415123,0.0,0.0,0.0,0.0,167.99,161.7,163.97,171.84,174.22,Open
698,1917.1761771650529,11323.10316838064,-7125.020876529322,14046.97615468218,0.0,0.0,0.0,0.0,167.99,161.7,163.97,171.84,174.22,Open
699,1695.469223912862,11848.324459591444,-7706.85913644542,16907.284189138914,0.0,0.0,0.0,0.0,167.99,161.7,163.97,171.84,174.22,Open
700,1595.1992982863544,11717.991437672548,-7733.725933280699,14721.037712220874,0.0,0.0,0.0,0.0,167.99,161.7,163.97,171.84,174.22,Open
701,1555.5473036226397,11043.66165920039,-7434.324316301861,10810.600019764905,0.0,0.0,0.0,0.0,167.99,161.7,163.97,171.84,174.22,Open
702,1414.574851343018,10614.86579356978,-7498.0714914883965,10519.826176145814,0.0,0.0,0.0,0.0,167.99,161.7,163.97,171.84,174.22,Open
703,1250.267177852056,10694.370948597309,-7907.577801654077,13408.208001638412,0.0,0.0,0.0,0.0,167.99,161.7,163.97,171.84,174.22,Open
704,1261.5995122908964,11067.086287389551,-8254.141599433613,16359.197063350328,0.0,0.0,0.0,0.0,167.99,161.7,163.97,171.84,174.22,Open
705,1444.3697267019425,10856.890482531844,-8012.116910471548,14265.799732899635,0.0,0.0,0.0,0.0,167.99,161.7,163.97,171.84,174.22,Open
706,1565.672643860894,10072.903045761948,-7522.323134222404,10464.706774319027,0.0,0.0,0.0,0.0,167.99,161.7,163.97,171.84,174.22,Open
707,1542.4268296273744,9563.84206579233,-7416.12999631524,10313.005484700858,0.0,0.0,0.0,0.0,167.99,161.7,163.97,171.84,174.22,Open
708,1453.5562936730737,9604.276371511982,-7726.931002966286,13341.711561883874,0.0,0.0,0.0,0.0,167.99,161.7,163.97,171.84,174.22,Open
709,1446.0908110250011,9941.765361042662,-8085.385928796045,16439.05984628914,0.0,0.0,0.0,0.0,167.99,161.7,163.97,171.84,174.22,Open
710,1607.179833314399,9793.282722626058,-7846.043449168617,14519.603791189647,0.0,0.0,0.0,0.0,170.72,162.62,165.6,171.3,171.93,Open
711,1726.4487417279174,9181.7166425844,-7330.321649351317,10666.67713721718,0.0,0.0,0.0,0.0,170.72,162.62,165.6,171.3,171.93,Open
712,1734.271852287275,8936.62976463196,-7179.425022533539,10530.107978595255,0.0,0.0,0.0,0.0,170.72,162.62,165.6,171.3,171.93,Open
713,1666.94839798789,9259.970099922431,-7468.343671362838,13617.97912335147,0.0,0.0,0.0,0.0,170.72,162.62,165.6,171.3,171.93,Open
714,1600.6531239334497,9847.865682585918,-7873.849019271019,16713.11458505566,0.0,0.0,0.0,0.0,170.72,162.62,165.6,171.3,171.93,Open
715,1655.5713600601389,9902.15806986786,-7727.713314022221,14737.600354862256,0.0,0.0,0.0,0.0,170.72,162.62,165.6,171.3,171.93,Open
716,1706.7121513738814,9464.399154710669,-7292.502497732938,10783.733222929624,0.0,0.0,0.0,0.0,170.72,162.62,165.6,171.3,171.93,Open
717,1642.1379616424992,9342.962127084986,-7231.14695920312,10570.51993257045,0.0,0.0,0.0,0.0,170.72,162.62,165.6,171.3,171.93,Open
718,1494.5270412596517,9723.008838058571,-7610.79133877651,13583.44567816802,0.0,0.0,0.0,0.0,170.72,162.62,165.6,171.3,171.93,Open
719,1434.4902556526968,10364.570959159251,-8021.0799599981265,16641.231374887393,0.0,0.0,0.0,0.0,170.72,162.62,165.6,171.3,171.93,Open
720,1556.866056545503,10454.268509658395,-7829.681972227332,14667.304118550315,0.0,0.0,0.0,0.0,170.72,162.62,165.6,171.3,171.93,Open
721,1644.440191321396,9967.045184021616,-7360.36239389925,10731.497196137572,0.0,0.0,0.0,0.0,170.72,162.62,165.6,171.3,171.93,Open
722,1597.2333070317875,9728.663829405765,-7275.403413224628,10543.966060157543,0.0,0.0,0.0,0.0,170.72,162.62,165.6,171.3,171.93,Open
723,1529.5298730766624,10028.020742895693,-7579.051861649974,13483.868656619628,0.0,0.0,0.0,0.0,170.72,162.62,165.6,171.3,171.93,Open
724,1532.346192878031,10582.120487942757,-7925.660362918421,16236.374227568416,0.0,0.0,0.0,0.0,170.72,162.62,165.6,171.3,171.93,Open
725,1610.1973188158654,10534.623030975226,-7768.952282542263,14107.370568200418,0.0,0.0,0.0,0.0,170.72,162.62,165.6,171.3,171.93,Open
726,1631.632641748505,9942.860596520972,-7352.785152528901,10261.954100364936,0.0,0.0,0.0,0.0,170.72,162.62,165.6,171.3,171.93,Open
727,1571.5288009081842,9669.34229962138,-7259.645433383636,10151.15650309998,0.0,0.0,0.0,0.0,170.72,162.62,165.6,171.3,171.93,Open
728,1501.2102128517884,9961.68076535234,-7545.770114156022,13274.678680262408,0.0,0.0,0.0,0.0,170.72,162.62,165.6,171.3,171.93,Open
729,1494.996427893213,10508.672655662616,-7890.545772379133,16419.01033151273,0.0,0.0,0.0,0.0,170.72,162.62,165.6,171.3,171.93,Open
730,1682.147584217499,10544.234281091009,-7620.581402847934,14559.434599809005,0.0,0.0,0.0,0.0,170.72,162.62,165.6,171.3,171.93,Open
731,1864.716632928447,10080.61439759903,-7054.814047195202,10711.760605783536,0.0,0.0,0.0,0.0,170.72,162.62,165.6,171.3,171.93,Open
732,1869.5669614752487,9863.422496726813,-6894.7085016618375,10525.07883609281,0.0,0.0,0.0,0.0,170.72,162.62,165.6,171.3,171.93,Open
733,1842.6778128955143,10187.947474473414,-7137.291984235286,13676.451286846554,0.0,0.0,0.0,0.0,170.72,162.62,165.6,171.3,171.93,Open
734,1834.0500395357656,10746.69638236718,-7474.28923538795,16794.005548239416,0.0,0.0,0.0,0.0,170.72,162.62,165.6,171.3,171.93,Open
735,1912.3705521071615,10715.158070940744,-7289.999102353943,14849.157911438691,0.0,0.0,0.0,0.0,170.72,162.62,165.6,171.3,171.93,Open
736,1955.621177628181,10123.283877764212,-6830.894271241936,10911.249925047152,0.0,0.0,0.0,0.0,170.72,162.62,165.6,171.3,171.93,Open
737,1870.885714398112,9813.443996124744,-6735.117046250945,10621.258392483996,0.0,0.0,0.0,0.0,172.25,163.98,168.21,168.9,165.87,Open
738,1728.9968405958225,10029.89828942994,-7080.675015529992,13616.727425661971,0.0,0.0,0.0,0.0,172.25,163.98,168.21,168.9,165.87,Open
739,1602.6871326788823,10456.1684079371,-7537.432913474192,16638.951496952952,0.0,0.0,0.0,0.0,172.25,163.98,168.21,168.9,165.87,Open
740,1636.3935633174854,10350.444656663496,-7408.575106689347,14674.255511075917,0.0,0.0,0.0,0.0,172.25,163.98,168.21,168.9,165.87,Open
741,1654.051441437178,9713.35288445388,-6999.202906990398,10706.776166770002,0.0,0.0,0.0,0.0,172.25,163.98,168.21,168.9,165.87,Open
742,1498.4833000282408,9308.093405734708,-7016.190232776432,10331.490377365397,0.0,0.0,0.0,0.0,172.25,163.98,168.21,168.9,165.87,Open
743,1268.327387371944,9406.463433082514,-7455.71493574559,13216.09475804505,0.0,0.0,0.0,0.0,172.25,163.98,168.21,168.9,165.87,Open
744,1136.139170663258,9810.314751901002,-7915.266801746703,16220.63859947188,0.0,0.0,0.0,0.0,172.25,163.98,168.21,168.9,165.87,Open
745,1196.3547702258552,9739.504425466588,-7769.913407553841,14278.20495107233,0.0,0.0,0.0,0.0,172.25,163.98,168.21,168.9,165.87,Open
746,1279.8385357664272,9211.802090621244,-7295.8552594012335,10346.220176961444,0.0,0.0,0.0,0.0,172.25,163.98,168.21,168.9,165.87,Open
747,1285.582934091441,9025.679114541905,-7153.407591987561,10153.414029289965,0.0,0.0,0.0,0.0,172.25,163.98,168.21,168.9,165.87,Open
748,1301.0503412545136,9426.356485647735,-7369.616016103747,13276.10919190755,0.0,0.0,0.0,0.0,172.25,163.98,168.21,168.9,165.87,Open
749,1369.3349205654763,10114.007903815258,-7651.13623751834,16419.658532101934,0.0,0.0,0.0,0.0,172.25,163.98,168.21,168.9,165.87,Open
750,1606.241060047276,10312.84902248967,-7343.26330939094,14648.640411930137,0.0,0.0,0.0,0.0,172.25,163.98,168.21,168.9,165.87,Open
751,1781.1211086655985,9963.044221764114,-6781.318102040065,10832.19180490873,0.0,0.0,0.0,0.0,172.25,163.98,168.21,168.9,165.87,Open
752,1780.49525982085,9835.95220279124,-6633.818940379494,10583.729813543536,0.0,0.0,0.0,0.0,171.33,164.49,169.04,167.38,164.16,Open
753,1759.4846200328614,10255.337984006166,-6873.586103151572,13617.576791951276,0.0,0.0,0.0,0.0,171.33,164.49,169.04,167.38,164.16,Open
754,1799.7177600524142,10945.381038830405,-7185.169420858553,16749.68203898454,0.0,0.0,0.0,0.0,171.33,164.49,169.04,167.38,164.16,Open
755,1970.48508769096,11073.165961881396,-6928.6384497449935,14920.325865784393,0.0,0.0,0.0,0.0,171.33,164.49,169.04,167.38,164.16,Open
756,2129.6295082127463,10643.140750305743,-6368.861361606284,11069.76849672419,0.0,0.0,0.0,0.0,171.33,164.49,169.04,167.38,164.16,Open
757,2153.3894125687375,10450.982803223467,-6185.778222772864,10849.603813839414,0.0,0.0,0.0,0.0,171.33,164.49,169.04,167.38,164.16,Open
758,2094.0678827843526,10731.251326948564,-6448.210054422624,13857.142789023255,0.0,0.0,0.0,0.0,171.33,164.49,169.04,167.38,164.16,Open
759,2088.7258158595346,11233.852652770598,-6788.425956776853,16903.909075726162,0.0,0.0,0.0,0.0,171.33,164.49,169.04,167.38,164.16,Open
760,2162.4195173286816,11123.099758994553,-6631.807283378516,14877.745792597032,0.0,0.0,0.0,0.0,171.33,164.49,169.04,167.38,164.16,Open
761,2118.4312842406375,10381.91591285657,-6283.500049531466,10738.470940407627,0.0,0.0,0.0,0.0,171.33,164.49,169.04,167.38,164.16,Open
762,1929.6931540600249,9864.495380460668,-6338.217119958058,10153.414029289965,0.0,0.0,0.0,0.0,171.33,164.49,169.04,167.38,164.16,Open
763,1681.8793632840352,9863.511903704632,-6813.906945455903,12826.995590567063,0.0,0.0,0.0,0.0,171.33,164.49,169.04,167.38,164.16,Open
764,1503.6912564863271,10146.306174553178,-7352.695745551079,15862.76481899796,0.0,0.0,0.0,0.0,171.33,164.49,169.04,167.38,164.16,Open
765,1466.4979537126965,9908.796537971084,-7326.588908027281,13925.51677531204,0.0,0.0,0.0,0.0,171.33,164.49,169.04,167.38,164.16,Open
766,1405.164766927334,9179.280302438772,-7008.47888093935,9888.81407842804,0.0,0.0,0.0,0.0,171.33,164.49,169.04,167.38,164.16,Open
767,1240.7006312251845,8783.87794302439,-7047.572081991682,9569.877036795264,0.0,0.0,0.0,0.0,171.33,164.49,169.04,167.38,164.16,Open
768,1087.792347406429,8993.425547292894,-7421.248545795506,12635.351733607262,0.0,0.0,0.0,0.0,171.33,164.49,169.04,167.38,164.16,Open
769,1065.2617889954793,9574.816772319886,-7789.806460119064,15843.452911788574,0.0,0.0,0.0,0.0,171.33,164.49,169.04,167.38,164.16,Open
770,1226.4625700071538,9697.05846274596,-7555.023736360519,14098.45222216275,0.0,0.0,0.0,0.0,171.33,164.49,169.04,167.38,164.16,Open
771,1386.5681155405184,9337.977688071453,-7008.076549539155,10278.360280795132,0.0,0.0,0.0,0.0,171.19,164.46,169.48,166.89,163.33,Open
772,1393.743025510672,9243.675678214511,-6852.351945919031,10078.155705708949,0.0,0.0,0.0,0.0,171.19,164.46,169.48,166.89,163.33,Open
773,1341.127019062879,9678.886494503797,-7112.682713589992,13182.74595531773,0.0,0.0,0.0,0.0,171.19,164.46,169.48,166.89,163.33,Open
774,1338.0424783280466,10375.970348831455,-7465.884979472755,16414.987017510775,0.0,0.0,0.0,0.0,171.19,164.46,169.48,166.89,163.33,Open
775,1450.225883749233,10511.868955119724,-7291.809593654823,14601.947617763,0.0,0.0,0.0,0.0,171.19,164.46,169.48,166.89,163.33,Open
776,1558.631844357472,10118.366493984044,-6810.48712855424,10690.749965995548,0.0,0.0,0.0,0.0,171.19,164.46,169.48,166.89,163.33,Open
777,1520.5221200611736,9933.003477216182,-6723.717656578739,10430.687419258047,0.0,0.0,0.0,0.0,171.19,164.46,169.48,166.89,163.33,Open
778,1430.221072461733,10234.193233751444,-7050.3213465596855,13467.887159334085,0.0,0.0,0.0,0.0,171.19,164.46,169.48,166.89,163.33,Open
779,1412.317325153032,10802.061653382976,-7434.748999446511,16589.442382984445,0.0,0.0,0.0,0.0,171.19,164.46,169.48,166.89,163.33,Open
780,1517.6163932819836,10795.154964346286,-7284.008834839921,14666.342993538738,0.0,0.0,0.0,0.0,171.19,164.46,169.48,166.89,163.33,Open
781,1568.9807020402793,10192.641340809028,-6870.45685892783,10605.72393008756,0.0,0.0,0.0,0.0,171.19,164.46,169.48,166.89,163.33,Open
782,1507.1557768768998,9843.350630205943,-6817.237355379743,10270.783039424785,0.0,0.0,0.0,0.0,171.19,164.46,169.48,166.89,163.33,Open
783,1391.6643132763284,10018.208327079812,-7167.243321805397,13274.611625029043,0.0,0.0,0.0,0.0,171.19,164.46,169.48,166.89,163.33,Open
784,1345.55266446503,10482.387004183174,-7567.496009766581,16437.808148599644,0.0,0.0,0.0,0.0,171.19,164.46,169.48,166.89,163.33,Open
785,1468.017872335657,10442.310326374807,-7378.22143771904,14609.390748666616,0.0,0.0,0.0,0.0,171.19,164.46,169.48,166.89,163.33,Open
786,1532.122675433478,9842.65772612783,-6920.1894903408875,10603.533459130938,0.0,0.0,0.0,0.0,171.19,164.46,169.48,166.89,163.33,Open
787,1426.2201102042332,9483.912227620152,-6873.0496612846455,10231.712190116905,0.0,0.0,0.0,0.0,171.19,164.46,169.48,166.89,163.33,Open
788,1259.8337244789273,9666.414221097735,-7249.564796634293,13191.08315599956,0.0,0.0,0.0,0.0,171.19,164.46,169.48,166.89,163.33,Open
789,1161.0613657309254,10149.3460117991,-7697.247886329638,16294.153486985386,0.0,0.0,0.0,0.0,171.19,164.46,169.48,166.89,163.33,Open
790,1207.6424011757854,10126.48017722132,-7594.586324046412,14373.915120829955,0.0,0.0,0.0,0.0,171.19,164.46,169.48,166.89,163.33,Open
791,1229.6365177198074,9584.450374180124,-7206.247115879908,10312.401987600564,0.0,0.0,0.0,0.0,171.19,164.46,169.48,166.89,163.33,Open
792,1125.7903129804508,9320.453920418491,-7190.556191272282,9910.24940136068,0.0,0.0,0.0,0.0,171.19,164.46,169.48,166.89,163.33,Open
793,1039.6690415941528,9655.975956437109,-7523.306610978439,12922.281077180038,0.0,0.0,0.0,0.0,171.19,164.46,169.48,166.89,163.33,Open
794,1052.789515589418,10310.055054432756,-7878.364071650991,16137.691275798235,0.0,0.0,0.0,0.0,171.19,164.46,169.48,166.89,163.33,Open
795,1276.7986985205052,10490.79126009837,-7601.470661338647,14382.252321511784,0.0,0.0,0.0,0.0,171.19,164.46,169.48,166.89,163.33,Open
796,1440.8605028224592,10098.249923974266,-7072.695442759448,10453.396791624642,0.0,0.0,0.0,0.0,171.2,164.01,168.98,167.22,163.15,Open
797,1436.3007469535764,9917.021979930638,-6945.625775531027,10195.927047243958,0.0,0.0,0.0,0.0,171.2,164.01,168.98,167.22,163.15,Open
798,1419.738104312194,10287.926827422005,-7175.312301553763,13291.889523492997,0.0,0.0,0.0,0.0,171.2,164.01,168.98,167.22,163.15,Open
799,1458.9877675757132,10915.8767361494,-7471.450563842126,16524.84584150861,0.0,0.0,0.0,0.0,171.2,164.01,168.98,167.22,163.15,Open
800,1633.376077816019,10994.93485628782,-7228.531805101848,14754.6323841372,0.0,0.0,0.0,0.0,171.2,164.01,168.98,167.22,163.15,Open
801,1734.5847767096493,10477.961358781024,-6733.9324037948145,10763.28137675302,0.0,0.0,0.0,0.0,171.2,164.01,168.98,167.22,163.15,Open
802,1663.7744502752364,10160.387773560022,-6653.488475500164,10378.317281999263,0.0,0.0,0.0,0.0,171.2,164.01,168.98,167.22,163.15,Open
803,1543.410306383408,10362.402839947086,-6996.990084289323,13341.800968861697,0.0,0.0,0.0,0.0,171.2,164.01,168.98,167.22,163.15,Open
804,1476.5338869731293,10830.671886285769,-7426.076522597853,16471.425172260424,0.0,0.0,0.0,0.0,171.2,164.01,168.98,167.22,163.15,Open
805,1525.6630212858945,10758.02871680602,-7322.610297514236,14580.020556452342,0.0,0.0,0.0,0.0,171.2,164.01,168.98,167.22,163.15,Open
806,1534.8495882570253,10137.968973871348,-6928.750208467271,10486.723242607504,0.0,0.0,0.0,0.0,171.2,164.01,168.98,167.22,163.15,Open
807,1435.7196015977386,9802.156365174817,-6890.662835915427,10072.500714361751,0.0,0.0,0.0,0.0,171.2,164.01,168.98,167.22,163.15,Open
808,1324.0279345545691,10043.935184947872,-7212.863232238678,13048.568433352522,0.0,0.0,0.0,0.0,171.2,164.01,168.98,167.22,163.15,Open
809,1312.8967658158265,10611.893011557224,-7564.478524265114,16237.514166535637,0.0,0.0,0.0,0.0,171.2,164.01,168.98,167.22,163.15,Open
810,1454.5621221735623,10669.225236085083,-7348.292451893384,14436.298839604717,0.0,0.0,0.0,0.0,171.2,164.01,168.98,167.22,163.15,Open
811,1551.1663617093996,10159.091372381614,-6859.638614611461,10446.512454332407,0.0,0.0,0.0,0.0,171.2,164.01,168.98,167.22,163.15,Open
812,1518.7786839936596,9891.988026140694,-6740.012078286658,10096.95352279586,0.0,0.0,0.0,0.0,171.2,164.01,168.98,167.22,163.15,Open
813,1439.7429155996938,10151.2459100778,-7026.293221270231,13116.942419641307,0.0,0.0,0.0,0.0,171.25,164.09,169.04,167.04,162.29,Open
814,1458.317215242054,10719.918992509723,-7364.251597434473,16399.67607255889,0.0,0.0,0.0,0.0,171.25,164.09,169.04,167.04,162.29,Open
815,1601.0331035891895,10752.41842894774,-7164.6058159596705,14639.029161814353,0.0,0.0,0.0,0.0,171.25,164.09,169.04,167.04,162.29,Open
816,1704.7004943729037,10226.660695870009,-6679.952940935247,10620.587840150338,0.0,0.0,0.0,0.0,171.25,164.09,169.04,167.04,162.29,Open
817,1664.154429930977,9938.613765074464,-6577.87252400786,10233.88030932907,0.0,0.0,0.0,0.0,171.25,164.09,169.04,167.04,162.29,Open
818,1544.3043761616202,10150.463599021865,-6899.335312764087,13194.27945545667,0.0,0.0,0.0,0.0,171.25,164.09,169.04,167.04,162.29,Open
819,1466.5873606905177,10621.9065930732,-7312.574364253804,16347.417694022382,0.0,0.0,0.0,0.0,171.25,164.09,169.04,167.04,162.29,Open
820,1497.3433610610202,10565.535493556918,-7223.703828299503,14479.86238954811,0.0,0.0,0.0,0.0,171.25,164.09,169.04,167.04,162.29,Open
821,1543.1644371943996,9999.678730926364,-6802.798128461615,10431.939116947546,0.0,0.0,0.0,0.0,170.7,163.77,168.93,167.62,162.07,Open
822,1462.1393635439117,9675.287863646492,-6726.153996724367,9988.055823809604,0.0,0.0,0.0,0.0,170.7,163.77,168.93,167.62,162.07,Open
823,1378.901467192348,9931.640020804409,-7022.783997390748,12995.438336782256,0.0,0.0,0.0,0.0,170.7,163.77,168.93,167.62,162.07,Open
824,1361.4224030282978,10481.224713471498,-7389.196144246596,16223.812547184534,0.0,0.0,0.0,0.0,170.7,163.77,168.93,167.62,162.07,Open
825,1476.1762590618443,10512.159527797645,-7207.744682758414,14431.090883146631,0.0,0.0,0.0,0.0,170.7,163.77,168.93,167.62,162.07,Open
826,1564.823277571592,9995.02956807966,-6729.350296181477,10401.831317166248,0.0,0.0,0.0,0.0,170.7,163.77,168.93,167.62,162.07,Open
827,1477.6514741958947,9689.01183474205,-6674.141487376868,9949.566119857564,0.0,0.0,0.0,0.0,170.7,163.77,168.93,167.62,162.07,Open
828,1321.099856030924,9902.023959401127,-7054.054087883722,12868.703945720668,0.0,0.0,0.0,0.0,170.7,163.77,168.93,167.62,162.07,Open
829,1272.6859775407288,10441.773884507882,-7458.66536601369,16066.456266219173,0.0,0.0,0.0,0.0,170.7,163.77,168.93,167.62,162.07,Open
830,1396.358179611943,10504.69404514957,-7279.113802804209,14349.663478095948,0.0,0.0,0.0,0.0,170.7,163.77,168.93,167.62,162.07,Open
831,1494.7729104486598,10027.88663242896,-6783.776793930148,10342.643897848597,0.0,0.0,0.0,0.0,170.7,163.77,168.93,167.62,162.07,Open
832,1425.773075315127,9753.54132098452,-6673.001548409647,9912.082244406014,0.0,0.0,0.0,0.0,170.7,163.77,168.93,167.62,162.07,Open
833,1312.673248371273,10004.730225173262,-6976.784107301725,12873.196646356184,0.0,0.0,0.0,0.0,169.18,163.33,168.38,167.28,161.64,Open
834,1257.5091430555754,10536.187653087098,-7370.308920181861,16053.447550946184,0.0,0.0,0.0,0.0,169.18,163.33,168.38,167.28,161.64,Open
835,1329.772332879583,10548.101132881777,-7231.236366180941,14279.367241784006,0.0,0.0,0.0,0.0,169.18,163.33,168.38,167.28,161.64,Open
836,1395.4864615781858,10024.243298082743,-6783.86620090797,10252.40990548252,0.0,0.0,0.0,0.0,169.18,163.33,168.38,167.28,161.64,Open
837,1360.193057083256,9756.379992530346,-6678.745946734661,9840.08727551547,0.0,0.0,0.0,0.0,169.18,163.33,168.38,167.28,161.64,Open
838,1299.5080708870971,10021.69519921484,-6954.074734935133,12823.821642854413,0.0,0.0,0.0,0.0,169.18,163.33,168.38,167.28,161.64,Open
839,1320.295193230533,10578.790078018914,-7287.9203901196,16093.725394454646,0.0,0.0,0.0,0.0,169.18,163.33,168.38,167.28,161.64,Open
840,1477.1373840734225,10615.8045668369,-7079.848000985146,14431.493214546826,0.0,0.0,0.0,0.0,169.18,163.33,168.38,167.28,161.64,Open
841,1558.83301005757,10045.343344848556,-6607.041550522036,10403.731215444948,0.0,0.0,0.0,0.0,169.18,163.33,168.38,167.28,161.64,Open
842,1511.469663556774,9715.83392808842,-6510.079683074914,9982.266721995678,0.0,0.0,0.0,0.0,169.18,163.33,168.38,167.28,161.64,Open
843,1400.2026796582556,9905.711997236253,-6835.699896299827,12912.535716597524,0.0,0.0,0.0,0.0,169.18,163.33,168.38,167.28,161.64,Open
844,1366.2727315750994,10402.68068345555,-7230.699924314013,16146.699028813724,0.0,0.0,0.0,0.0,169.18,163.33,168.38,167.28,161.64,Open
845,1470.0295293366348,10399.752604931904,-7090.129803434587,14427.24638310032,0.0,0.0,0.0,0.0,169.18,163.33,168.38,167.28,161.64,Open
846,1562.1857717258658,9872.653767186854,-6626.2193472646895,10424.026599410368,0.0,0.0,0.0,0.0,169.18,163.33,168.38,167.28,161.64,Open
847,1575.2168387433098,9646.00707841004,-6477.334377447889,10071.472534116809,0.0,0.0,0.0,0.0,169.18,163.33,168.38,167.28,161.64,Open
848,1563.3704141819971,9985.351262730512,-6715.536918108096,13143.563347287578,0.0,0.0,0.0,0.0,169.18,163.33,168.38,167.28,161.64,Open
849,1613.728894439804,10630.891994344234,-7009.19413676192,16442.21144225734,0.0,0.0,0.0,0.0,169.18,163.33,168.38,167.28,161.64,Open
850,1804.1210537101097,10783.733222929624,-6753.154904026378,14818.73718723502,0.0,0.0,0.0,0.0,169.18,163.33,168.38,167.28,161.64,Open
851,1930.5425203493264,10355.429095677033,-6248.452514225544,10914.222707059707,0.0,0.0,0.0,0.0,169.18,163.33,168.38,167.28,161.64,Open
852,1869.298740541785,10111.81743285864,-6159.671385249065,10471.099373233244,0.0,0.0,0.0,0.0,169.18,163.33,168.38,167.28,161.64,Open
853,1726.8063696392023,10352.076334008734,-6513.3877412543,13398.216771866892,0.0,0.0,0.0,0.0,169.18,163.33,168.38,167.28,161.64,Open
854,1631.0067929037564,10863.461895401704,-6962.1437146835,16577.37244097858,0.0,0.0,0.0,0.0,169.18,163.33,168.38,167.28,161.64,Open
855,1643.3226040986306,10846.362810893395,-6891.333388249086,14781.49918097248,0.0,0.0,0.0,0.0,169.18,163.33,168.38,167.28,161.64,Open
856,1614.086522351089,10236.607222152616,-6538.9357851667155,10672.421535542197,0.0,0.0,0.0,0.0,167.65,163.79,168.45,165.58,158.73,Open
857,1415.1112932099454,9818.56254560501,-6589.584838102441,10092.170249482424,0.0,0.0,0.0,0.0,167.65,163.79,168.45,165.58,158.73,Open
858,1165.3976041552548,9930.455378348275,-7052.355355305119,12914.36855964286,0.0,0.0,0.0,0.0,167.65,163.79,168.45,165.58,158.73,Open
859,1035.4222101476444,10377.780840132338,-7531.464997704626,16030.782882068504,0.0,0.0,0.0,0.0,167.65,163.79,168.45,165.58,158.73,Open
860,1071.0732425538592,10324.114301695145,-7436.335973302838,14281.155381340432,0.0,0.0,0.0,0.0,167.65,163.79,168.45,165.58,158.73,Open
861,1092.7991381644176,9707.07204426194,-7021.599354934616,10243.111579789113,0.0,0.0,0.0,0.0,167.65,163.79,168.45,165.58,158.73,Open
862,1011.1482156691808,9323.784330342332,-6950.654918033471,9803.430414608769,0.0,0.0,0.0,0.0,167.65,163.79,168.45,165.58,158.73,Open
863,945.0988108037484,9512.813033200864,-7234.544424360326,12801.045215254451,0.0,0.0,0.0,0.0,167.65,163.79,168.45,165.58,158.73,Open
864,969.7080814490416,10005.065501340092,-7569.6864807232,16066.568024941447,0.0,0.0,0.0,0.0,167.65,163.79,168.45,165.58,158.73,Open
865,1166.6045983558415,10018.990638135749,-7349.968832727532,14484.57860762818,0.0,0.0,0.0,0.0,167.65,163.79,168.45,165.58,158.73,Open
866,1356.3038535480323,9509.5943819993,-6810.844756465525,10567.256577879974,0.0,0.0,0.0,0.0,167.65,163.79,168.45,165.58,158.73,Open
867,1437.060706265057,9260.461838300447,-6605.0298935210585,10198.16222168949,0.0,0.0,0.0,0.0,167.65,163.79,168.45,165.58,158.73,Open
868,1485.7875091776264,9571.307548440403,-6793.946837657313,13256.171435853415,0.0,0.0,0.0,0.0,167.65,163.79,168.45,165.58,158.73,Open
869,1583.3305219805864,10191.076718697155,-7061.452515298429,16582.826266625674,0.0,0.0,0.0,0.0,167.65,163.79,168.45,165.58,158.73,Open
870,1783.199820899942,10321.94618248298,-6826.82625375107,14982.061383969947,0.0,0.0,0.0,0.0,167.65,163.79,168.45,165.58,158.73,Open
871,1904.972124692455,9895.564305253543,-6334.484378634022,10966.45873385176,0.0,0.0,0.0,0.0,167.65,163.79,168.45,165.58,158.73,Open
872,1851.9537868444668,9691.850506287874,-6234.348563474246,10469.490047632462,0.0,0.0,0.0,0.0,167.65,163.79,168.45,165.58,158.73,Open
873,1744.173675080976,10034.435693554366,-6549.284642849522,13402.240085868849,0.0,0.0,0.0,0.0,167.65,163.79,168.45,165.58,158.73,Open
874,1680.471203383351,10661.759753437014,-6956.466371591851,16594.225656297884,0.0,0.0,0.0,0.0,167.65,163.79,168.45,165.58,158.73,Open
875,1768.1794486259755,10806.308484829484,-6807.760215730694,14891.402708459224,0.0,0.0,0.0,0.0,167.02,164.71,168.91,164.98,158.04,Open
876,1790.5088413368276,10367.47668593844,-6400.26556256599,10872.62611062838,0.0,0.0,0.0,0.0,167.02,164.71,168.91,164.98,158.04,Open
877,1683.891020285013,10149.994212388305,-6376.036271576438,10471.769925566903,0.0,0.0,0.0,0.0,167.02,164.71,168.91,164.98,158.04,Open
878,1553.9826815107683,10451.87687300168,-6733.440665416797,13313.794233059196,0.0,0.0,0.0,0.0,167.02,164.71,168.91,164.98,158.04,Open
879,1459.5018576981852,11005.306065715084,-7185.571752258748,16406.538058106667,0.0,0.0,0.0,0.0,167.02,164.71,168.91,164.98,158.04,Open
880,1471.4823927262298,10996.298312699597,-7123.545661395271,14645.667629917578,0.0,0.0,0.0,0.0,167.02,164.71,168.91,164.98,158.04,Open
881,1455.925578585336,10378.250226765898,-6757.0664593060565,10590.86002002478,0.0,0.0,0.0,0.0,167.02,164.71,168.91,164.98,158.04,Open
882,1324.7655421215943,9975.583550403542,-6731.920746793837,10030.054751641126,0.0,0.0,0.0,0.0,167.02,164.71,168.91,164.98,158.04,Open
883,1168.6386071012744,10093.109022749546,-7095.0248354703,12835.958640093642,0.0,0.0,0.0,0.0,167.02,164.71,168.91,164.98,158.04,Open
884,1086.9206293726718,10490.277169975898,-7534.929518095198,15984.604178023836,0.0,0.0,0.0,0.0,167.02,164.71,168.91,164.98,158.04,Open
885,1146.242159157057,10368.616624905662,-7435.643069224724,14289.872561678,0.0,0.0,0.0,0.0,167.02,164.71,168.91,164.98,158.04,Open
886,1185.1565462537465,9680.115840448838,-7013.888003097535,10254.868597372604,0.0,0.0,0.0,0.0,167.02,164.71,168.91,164.98,158.04,Open
887,1122.594013523342,9237.707762444945,-6916.434397272396,9762.303204811002,0.0,0.0,0.0,0.0,167.02,164.71,168.91,164.98,158.04,Open
888,1015.4173988601444,9350.51701671088,-7236.913709272589,12647.019344212931,0.0,0.0,0.0,0.0,167.02,164.71,168.91,164.98,158.04,Open
889,978.693482720075,9788.745318501631,-7624.56001336098,15842.357676310265,0.0,0.0,0.0,0.0,167.02,164.71,168.91,164.98,158.04,Open
890,1129.165426393202,9797.529554072566,-7430.301002299906,14187.121592416954,0.0,0.0,0.0,0.0,167.02,164.71,168.91,164.98,158.04,Open
891,1263.9017419697932,9281.293664132794,-6917.9543158953575,10188.327454129154,0.0,0.0,0.0,0.0,167.02,164.71,168.91,164.98,158.04,Open
892,1286.2087829361897,9035.558585591149,-6741.263775976155,9740.957288856183,0.0,0.0,0.0,0.0,167.02,164.71,168.91,164.98,158.04,Open
893,1255.5645412879635,9335.004906058895,-6980.650959092493,12710.56535369937,0.0,0.0,0.0,0.0,167.02,164.71,168.91,164.98,158.04,Open
894,1314.9531263057145,9981.238541750734,-7275.224599268985,15999.55749506444,0.0,0.0,0.0,0.0,167.02,164.71,168.91,164.98,158.04,Open
895,1588.985513327779,10237.277774486278,-6969.4303833759295,14463.38915388455,0.0,0.0,0.0,0.0,166.26,164.99,168.8,164.21,157.73,Open
896,1830.719629611925,9966.73225959924,-6357.730192867541,10565.781362745924,0.0,0.0,0.0,0.0,166.26,164.99,168.8,164.21,157.73,Open
897,1899.7641682343683,9911.501099050176,-6135.9114808930735,10195.122384443568,0.0,0.0,0.0,0.0,166.26,164.99,168.8,164.21,157.73,Open
898,1884.5426302603043,10354.982060787925,-6350.644689875208,13218.084063301572,0.0,0.0,0.0,0.0,166.26,164.99,168.8,164.21,157.73,Open
899,1903.51926130286,11060.939557664342,-6678.477725801197,16629.452005559448,0.0,0.0,0.0,0.0,166.26,164.99,168.8,164.21,157.73,Open
900,2008.259535820429,11227.571812578655,-6517.031075600515,15061.477132019656,0.0,0.0,0.0,0.0,166.26,164.99,168.8,164.21,157.73,Open
901,2043.351774615261,10791.064595110964,-6090.738605348898,10979.668614824846,0.0,0.0,0.0,0.0,166.26,164.99,168.8,164.21,157.73,Open
902,1900.8370519682232,10499.79901311386,-6065.324671903214,10337.368886157145,0.0,0.0,0.0,0.0,166.26,164.99,168.8,164.21,157.73,Open
903,1703.5829071501385,10675.39431755475,-6467.454906398643,13121.50217551019,0.0,0.0,0.0,0.0,166.26,164.99,168.8,164.21,157.73,Open
904,1560.7105565918157,11088.074575433086,-6964.512999595761,16305.932856313331,0.0,0.0,0.0,0.0,166.26,164.99,168.8,164.21,157.73,Open
905,1568.7124811068156,10988.899885284887,-6911.248792558765,14674.747249453932,0.0,0.0,0.0,0.0,166.26,164.99,168.8,164.21,157.73,Open
