sample_index,EXG Channel 0,EXG Channel 1,EXG Channel 2,EXG Channel 3,EXG Channel 4,EXG Channel 5,EXG Channel 6,EXG Channel 7,thumb_ext_angle,index_ext_angle,middle_ext_angle,ring_ext_angle,pinky_ext_angle,hand_state
49,6680.444679313265,613.5777370426342,5715.855147344488,22281.917605628685,0.0,0.0,0.0,0.0,169.64,170.21,172.16,167.85,157.1,Open
50,6312.669076045642,298.082864055975,5414.888908253778,22389.831827858907,0.0,0.0,0.0,0.0,169.64,170.21,172.16,167.85,157.1,Open
51,6198.049330478827,303.9390211032654,5364.865704162801,22897.1046682721,0.0,0.0,0.0,0.0,169.64,170.21,172.16,167.85,157.1,Open
52,6580.77825078705,715.5016917588343,5711.965943809265,23125.58420009425,0.0,0.0,0.0,0.0,169.64,170.21,172.16,167.85,157.1,Open
53,6853.804809308625,889.0629874542938,5910.896469461497,22709.953511947813,0.0,0.0,0.0,0.0,169.64,170.21,172.16,167.85,157.1,Open
54,6689.161859650834,642.165618200972,5726.829853872044,22295.619224979782,0.0,0.0,0.0,0.0,169.64,170.21,172.16,167.85,157.1,Open
55,6344.073277005348,341.3781930659048,5446.069591768932,22407.646168189785,0.0,0.0,0.0,0.0,169.64,170.21,172.16,167.85,157.1,Open
56,6231.733409372975,334.71737321822326,5394.9064487107335,22922.87622962907,0.0,0.0,0.0,0.0,169.64,170.21,172.16,167.85,157.1,Open
57,6588.958989257692,702.1353485745608,5743.973641869265,23134.10021473172,0.0,0.0,0.0,0.0,169.64,170.21,172.16,167.85,157.1,Open
58,6841.958384747313,864.3196063422688,5915.3221148636485,22699.738764731737,0.0,0.0,0.0,0.0,169.64,170.21,172.16,167.85,157.1,Open
59,6661.98213839318,618.6068795450783,5684.629760340424,22258.15770127269,0.0,0.0,0.0,0.0,169.62,170.2,172.17,167.92,156.84,Open
60,6323.576727339831,327.8777394148993,5410.016227962521,22376.644298630275,0.0,0.0,0.0,0.0,169.62,170.2,172.17,167.92,156.84,Open
61,6210.052217251327,321.61925096741334,5374.544009511949,22895.92002581597,0.0,0.0,0.0,0.0,169.62,170.2,172.17,167.92,156.84,Open
62,6578.610131574886,698.2908485282479,5713.08353103203,23125.226572182964,0.0,0.0,0.0,0.0,169.62,170.2,172.17,167.92,156.84,Open
63,6850.563806362607,878.0435774378274,5903.028655413229,22705.505514801207,0.0,0.0,0.0,0.0,169.62,170.2,172.17,167.92,156.84,Open
64,6698.616647555429,655.7554788297986,5734.742371409223,22311.93599843216,0.0,0.0,0.0,0.0,169.62,170.2,172.17,167.92,156.84,Open
65,6342.307489193379,352.531713549103,5456.485504685104,22388.46837144713,0.0,0.0,0.0,0.0,169.62,170.2,172.17,167.92,156.84,Open
66,6215.729560342975,333.1303993618965,5382.300064837941,22876.317545928665,0.0,0.0,0.0,0.0,169.62,170.2,172.17,167.92,156.84,Open
67,6578.431317619243,700.7271886738764,5707.875574573944,23108.86509524168,0.0,0.0,0.0,0.0,169.62,170.2,172.17,167.92,156.84,Open
68,6824.456968838807,852.7414027144198,5892.21041109686,22698.77763972016,0.0,0.0,0.0,0.0,169.62,170.2,172.17,167.92,156.84,Open
69,6630.510882200108,601.8207194591427,5688.586019109013,22281.515274228488,0.0,0.0,0.0,0.0,169.62,170.2,172.17,167.92,156.84,Open
70,6307.841099243296,328.92827140429875,5435.6983823416695,22363.166196723723,0.0,0.0,0.0,0.0,169.62,170.2,172.17,167.92,156.84,Open
71,6228.559461660321,340.5064750321478,5419.426312378206,22845.405083346974,0.0,0.0,0.0,0.0,169.62,170.2,172.17,167.92,156.84,Open
72,6598.838460306938,713.8923661580523,5746.90172039291,23092.078935155743,0.0,0.0,0.0,0.0,169.62,170.2,172.17,167.92,156.84,Open
73,6848.887425528458,893.086301456249,5924.5980888126005,22732.90875350341,0.0,0.0,0.0,0.0,169.62,170.2,172.17,167.92,156.84,Open
74,6682.366929336421,664.2938452117259,5747.594624471024,22346.670609315708,0.0,0.0,0.0,0.0,169.62,170.2,172.17,167.92,156.84,Open
75,6342.709820593575,356.5773792955136,5469.315406002451,22375.638470129787,0.0,0.0,0.0,0.0,169.62,170.2,172.17,167.92,156.84,Open
76,6235.399095463646,342.853408199955,5411.267925652019,22827.926019182923,0.0,0.0,0.0,0.0,169.62,170.2,172.17,167.92,156.84,Open
77,6588.422547390765,692.479394969868,5723.924127092854,23078.265557082363,0.0,0.0,0.0,0.0,169.62,170.2,172.17,167.92,156.84,Open
78,6828.301468885121,864.4313650645454,5903.676856002433,22732.97580873678,0.0,0.0,0.0,0.0,169.62,170.2,172.17,167.92,156.84,Open
79,6663.725574460695,660.2481794653153,5730.2496707737055,22347.34116164937,0.0,0.0,0.0,0.0,169.62,170.2,172.17,167.92,156.84,Open
80,6345.503788650488,373.0729667035302,5469.315406002451,22409.724880424128,0.0,0.0,0.0,0.0,169.62,170.2,172.17,167.92,156.84,Open
81,6237.075476297793,346.5861495239913,5419.649829822759,22829.20006861688,0.0,0.0,0.0,0.0,169.62,170.2,172.17,167.92,156.84,Open
82,6598.167907973279,710.1819765784713,5751.394421028426,23072.65526922408,0.0,0.0,0.0,0.0,169.62,170.2,172.17,167.92,156.84,Open
83,6853.916568030902,887.3419031312351,5945.318155922671,22742.5200036192,0.0,0.0,0.0,0.0,169.62,170.2,172.17,167.92,156.84,Open
84,6683.797440981561,665.3890806900359,5750.075668105563,22361.66862984522,0.0,0.0,0.0,0.0,169.62,170.2,172.17,167.92,156.84,Open
85,6338.664154847164,370.5248678356252,5459.592397164392,22389.29538599198,0.0,0.0,0.0,0.0,169.58,170.39,172.2,167.84,156.88,Open
86,6241.322307744302,366.143925922385,5429.708114827647,22838.31958035464,0.0,0.0,0.0,0.0,169.58,170.39,172.2,167.84,156.88,Open
87,6600.872469052371,723.6153749961109,5759.172828098873,23078.332612315728,0.0,0.0,0.0,0.0,169.58,170.39,172.2,167.84,156.88,Open
88,6857.962233777313,896.3273044022685,5944.692307077922,22740.485994873765,0.0,0.0,0.0,0.0,169.58,170.39,172.2,167.84,156.88,Open
89,6701.701188290262,685.2150780218933,5766.772421213677,22378.05245853096,0.0,0.0,0.0,0.0,169.58,170.39,172.2,167.84,156.88,Open
90,6338.462989147066,369.3849288684045,5453.22214999463,22392.24581626008,0.0,0.0,0.0,0.0,169.58,170.39,172.2,167.84,156.88,Open
91,6208.219374205992,329.0400301265753,5388.200925374142,22798.488771735287,0.0,0.0,0.0,0.0,169.58,170.39,172.2,167.84,156.88,Open
92,6571.837553004927,690.8030141357201,5725.801673627099,23049.32004801274,0.0,0.0,0.0,0.0,169.58,170.39,172.2,167.84,156.88,Open
93,6828.055599696112,871.3157023567799,5920.395960855003,22708.0089101802,0.0,0.0,0.0,0.0,169.58,170.39,172.2,167.84,156.88,Open
94,6656.595367979452,658.3929846755249,5736.441103987826,22316.45105081213,0.0,0.0,0.0,0.0,169.58,170.39,172.2,167.84,156.88,Open
95,6336.585442612821,382.1254232079296,5462.408716965761,22390.748249381573,0.0,0.0,0.0,0.0,169.58,170.39,172.2,167.84,156.88,Open
96,6250.642985182165,375.4869551047033,5431.205681706153,22844.779234502224,0.0,0.0,0.0,0.0,169.58,170.39,172.2,167.84,156.88,Open
97,6595.061015493991,720.2626133278147,5740.240900545228,23070.442446523008,0.0,0.0,0.0,0.0,169.58,170.39,172.2,167.84,156.88,Open
98,6848.149817961433,895.053254968316,5925.134530679528,22743.056445486123,0.0,0.0,0.0,0.0,169.58,170.39,172.2,167.84,156.88,Open
99,6695.934438220792,689.9759995908737,5761.206836844306,22341.3732458798,0.0,0.0,0.0,0.0,169.58,170.39,172.2,167.84,156.88,Open
100,6342.151026982192,377.99035048369774,5474.925693860733,22351.65504832924,0.0,0.0,0.0,0.0,169.58,170.39,172.2,167.84,156.88,Open
101,6233.432141951578,359.08077467450795,5430.535129372493,22822.069862135635,0.0,0.0,0.0,0.0,169.44,170.46,172.29,167.91,156.82,Open
102,6592.78113755955,730.5891192661667,5759.731621710256,23084.680507741035,0.0,0.0,0.0,0.0,169.44,170.46,172.29,167.91,156.82,Open
103,6843.1653789479,906.340885918246,5927.257946402782,22735.76977679369,0.0,0.0,0.0,0.0,169.44,170.46,172.29,167.91,156.82,Open
104,6688.044272428068,683.0246070652732,5753.674298962867,22324.005940438023,0.0,0.0,0.0,0.0,169.44,170.46,172.29,167.91,156.82,Open
105,6339.737038581019,366.3450916224828,5472.802278137479,22345.016580226016,0.0,0.0,0.0,0.0,169.44,170.46,172.29,167.91,156.82,Open
106,6223.820891835796,360.243065386184,5421.773245546013,22807.1836003284,0.0,0.0,0.0,0.0,169.44,170.46,172.29,167.91,156.82,Open
107,6577.447840863209,739.9097967040296,5743.593662213524,23070.062466867264,0.0,0.0,0.0,0.0,169.44,170.46,172.29,167.91,156.82,Open
108,6849.40151565093,903.8821940281624,5939.663164575478,22738.049654728136,0.0,0.0,0.0,0.0,169.44,170.46,172.29,167.91,156.82,Open
109,6708.719636049228,694.8933833710413,5775.4448980623365,22324.94471370515,0.0,0.0,0.0,0.0,169.44,170.46,172.29,167.91,156.82,Open
110,6358.713669623575,398.01751351565287,5488.18027832273,22343.630772069788,0.0,0.0,0.0,0.0,169.44,170.46,172.29,167.91,156.82,Open
111,6229.721752371997,356.6891380177901,5419.381608889295,22818.65004523397,0.0,0.0,0.0,0.0,169.44,170.46,172.29,167.91,156.82,Open
112,6569.580026814941,697.9108688725078,5733.624784186457,23071.112998856664,0.0,0.0,0.0,0.0,169.44,170.46,172.29,167.91,156.82,Open
113,6833.9564602323135,884.8832112411513,5935.908071506986,22700.655186254407,0.0,0.0,0.0,0.0,169.44,170.46,172.29,167.91,156.82,Open
114,6686.881981716393,688.7913571347425,5763.196142100828,22291.12652434427,0.0,0.0,0.0,0.0,169.44,170.46,172.29,167.91,156.82,Open
115,6366.089745293826,401.7502548396892,5509.503842533093,22351.364475651324,0.0,0.0,0.0,0.0,169.44,170.46,172.29,167.91,156.82,Open
116,6241.121142044204,378.593847583991,5448.483580170105,22826.316693582143,0.0,0.0,0.0,0.0,169.44,170.46,172.29,167.91,156.82,Open
117,6580.308864153489,735.1712268795046,5732.909528363887,23101.377260849156,0.0,0.0,0.0,0.0,169.5,170.55,172.39,167.99,156.87,Open
118,6848.1051144725225,916.8462058122404,5928.330830136637,22746.45391064333,0.0,0.0,0.0,0.0,169.5,170.55,172.39,167.99,156.87,Open
119,6716.229822186211,714.9876016363623,5783.29036036615,22326.643446283757,0.0,0.0,0.0,0.0,169.5,170.55,172.39,167.99,156.87,Open
120,6354.288024221423,389.9932372561976,5472.534057204015,22340.009789468026,0.0,0.0,0.0,0.0,169.5,170.55,172.39,167.99,156.87,Open
121,6212.42150216359,346.1838181237958,5400.963771458122,22807.652986961963,0.0,0.0,0.0,0.0,169.5,170.55,172.39,167.99,156.87,Open
122,6581.15823044279,728.8903866875634,5752.266139062183,23113.44720285501,0.0,0.0,0.0,0.0,169.5,170.55,172.39,167.99,156.87,Open
123,6843.388896392453,914.1639964776036,5942.5018361213015,22736.52973610517,0.0,0.0,0.0,0.0,169.5,170.55,172.39,167.99,156.87,Open
124,6709.054912216057,708.7961684222423,5773.5673515280905,22312.94182693265,0.0,0.0,0.0,0.0,169.5,170.55,172.39,167.99,156.87,Open
125,6370.627149418253,410.7356561107226,5502.463043029671,22350.358647150835,0.0,0.0,0.0,0.0,169.5,170.55,172.39,167.99,156.87,Open
126,6238.729505387486,387.6686558328457,5434.670202096725,22829.04360640569,0.0,0.0,0.0,0.0,169.5,170.55,172.39,167.99,156.87,Open
127,6566.003747702092,733.6066047676331,5733.155397552896,23086.736868230924,0.0,0.0,0.0,0.0,169.5,170.55,172.39,167.99,156.87,Open
128,6848.418038894897,926.0104210389164,5942.859464032586,22744.576364109085,0.0,0.0,0.0,0.0,169.5,170.55,172.39,167.99,156.87,Open
129,6733.530072394618,729.7844564657756,5801.14940418594,22319.49088805805,0.0,0.0,0.0,0.0,169.5,170.55,172.39,167.99,156.87,Open
130,6385.468707736577,420.6151271599683,5512.431921056738,22343.742530792064,0.0,0.0,0.0,0.0,169.5,170.55,172.39,167.99,156.87,Open
131,6239.198892021048,380.1361179514072,5431.429199150705,22823.76859471424,0.0,0.0,0.0,0.0,169.5,170.55,172.39,167.99,156.87,Open
132,6573.290416394522,731.5278925332896,5735.099999320508,23119.370415135672,0.0,0.0,0.0,0.0,169.5,170.55,172.39,167.99,156.87,Open
133,6849.02153599519,921.987107036961,5938.970260497363,22763.776512596192,0.0,0.0,0.0,0.0,169.52,170.28,172.06,167.64,156.77,Open
134,6735.273508462133,734.2324536123817,5799.137747184962,22314.39469032225,0.0,0.0,0.0,0.0,169.52,170.28,172.06,167.64,156.77,Open
135,6362.625224903253,402.5996211289908,5488.493202745104,22304.78344020646,0.0,0.0,0.0,0.0,169.52,170.28,172.06,167.64,156.77,Open
136,6202.966714258995,354.6551292723572,5394.034730676977,22776.51700693572,0.0,0.0,0.0,0.0,169.52,170.28,172.06,167.64,156.77,Open
137,6553.397363829299,730.2761948437924,5722.001877069697,23062.887556897116,0.0,0.0,0.0,0.0,169.52,170.28,172.06,167.64,156.77,Open
138,6856.039983754156,937.1415897776592,5958.393926429025,22749.046713000145,0.0,0.0,0.0,0.0,169.52,170.28,172.06,167.64,156.77,Open
139,6732.613650871951,736.5570350357336,5807.899631011443,22292.735849945053,0.0,0.0,0.0,0.0,169.52,170.28,172.06,167.64,156.77,Open
140,6353.885692821228,396.2740774481389,5475.015100838555,22279.99535560553,0.0,0.0,0.0,0.0,169.52,170.28,172.06,167.64,156.77,Open
141,6191.567324586788,329.5094167601368,5374.074622878387,22764.447064929853,0.0,0.0,0.0,0.0,169.52,170.28,172.06,167.64,156.77,Open
142,6525.994125127092,688.2996187567256,5690.307103432072,23075.00220239189,0.0,0.0,0.0,0.0,169.52,170.28,172.06,167.64,156.77,Open
143,6813.437558822341,913.4934441439444,5918.74193176531,22719.050671941124,0.0,0.0,0.0,0.0,169.52,170.28,172.06,167.64,156.77,Open
144,6721.571889111029,747.352927607647,5812.861718280521,22259.185881517635,0.0,0.0,0.0,0.0,169.52,170.28,172.06,167.64,156.77,Open
145,6384.686396680641,439.4352959913368,5534.537796323037,22263.186843775136,0.0,0.0,0.0,0.0,169.52,170.28,172.06,167.64,156.77,Open
146,6220.401074934134,385.3664261539491,5401.902544725245,22782.574329683102,0.0,0.0,0.0,0.0,169.52,170.28,172.06,167.64,156.77,Open
147,6591.261218936589,755.8465905006636,5725.600507927002,23124.46661287148,0.0,0.0,0.0,0.0,169.52,170.28,172.06,167.64,156.77,Open
148,6891.60160918255,966.5564854808432,5963.735993353844,22783.1778267834,0.0,0.0,0.0,0.0,169.52,170.28,172.06,167.64,156.77,Open
149,6768.91288386737,767.2012766839596,5825.758674831232,22309.99139666455,0.0,0.0,0.0,0.0,169.52,170.28,172.06,167.64,156.77,Open
150,6380.126640811759,420.2351475042281,5500.13846160632,22279.28009978296,0.0,0.0,0.0,0.0,169.52,170.28,172.06,167.64,156.77,Open
151,6214.433159164568,364.0205101991308,5404.048312192955,22768.35862020953,0.0,0.0,0.0,0.0,169.52,170.28,172.06,167.64,156.77,Open
152,6563.366241856366,736.3111658467252,5733.624784186457,23097.488057313927,0.0,0.0,0.0,0.0,169.52,170.28,172.06,167.64,156.77,Open
153,6837.264518411698,929.4749414294888,5931.214205171372,22716.994311451235,0.0,0.0,0.0,0.0,169.52,170.28,172.06,167.64,156.77,Open
154,6727.897432791881,738.6580990145325,5791.359340114515,22225.03241598993,0.0,0.0,0.0,0.0,169.52,170.28,172.06,167.64,156.77,Open
155,6359.630091146242,403.73956009621145,5484.581647465426,22236.141232984213,0.0,0.0,0.0,0.0,169.52,170.28,172.06,167.64,156.77,Open
156,6196.149432200126,353.7834112386002,5385.87634395079,22754.277021202688,0.0,0.0,0.0,0.0,169.52,170.28,172.06,167.64,156.77,Open
157,6543.204968357679,740.736811248876,5709.239030985717,23095.454048568496,0.0,0.0,0.0,0.0,169.52,170.28,172.06,167.64,156.77,Open
158,6861.806733823626,976.9723983970164,5952.56012112619,22749.247878700244,0.0,0.0,0.0,0.0,169.52,170.28,172.06,167.64,156.77,Open
159,6757.737011639716,768.2741604178144,5820.8189393066095,22196.66805227614,0.0,0.0,0.0,0.0,169.62,170.31,172.06,167.76,156.67,Open
160,6371.49886745201,396.2517257036836,5492.091833602409,22213.3424536398,0.0,0.0,0.0,0.0,169.62,170.31,172.06,167.76,156.67,Open
161,6197.222315933981,340.61823375442435,5388.804422474435,22792.342042010077,0.0,0.0,0.0,0.0,169.62,170.31,172.06,167.76,156.67,Open
162,6551.631576017329,738.5686920367112,5721.9124700918765,23139.15170897862,0.0,0.0,0.0,0.0,169.62,170.31,172.06,167.76,156.67,Open
163,6860.152704733933,959.627444699698,5964.741821854333,22740.17307045139,0.0,0.0,0.0,0.0,169.62,170.31,172.06,167.76,156.67,Open
164,6760.754497141183,757.9923579683731,5831.078390011596,22197.517418565443,0.0,0.0,0.0,0.0,169.62,170.31,172.06,167.76,156.67,Open
165,6362.692280136619,400.6550193613791,5482.905266631278,22179.92659567912,0.0,0.0,0.0,0.0,169.62,170.31,172.06,167.76,156.67,Open
166,6169.036766175838,333.35391680644955,5358.808381415413,22773.2760039897,0.0,0.0,0.0,0.0,169.62,170.31,172.06,167.76,156.67,Open
167,6525.390628026799,730.2985465882476,5693.525754633636,23141.833918313256,0.0,0.0,0.0,0.0,169.62,170.31,172.06,167.76,156.67,Open
168,6864.019556524701,969.7080814490416,5962.819571831175,22745.984524009767,0.0,0.0,0.0,0.0,169.62,170.31,172.06,167.76,156.67,Open
169,6761.760325641671,758.6182068131217,5830.229023722294,22156.926650634607,0.0,0.0,0.0,0.0,169.62,170.31,172.06,167.76,156.67,Open
170,6372.504695952499,390.7979000565887,5492.360054535872,22173.511645020444,0.0,0.0,0.0,0.0,169.62,170.31,172.06,167.76,156.67,Open
171,6197.55759210081,347.5472745355695,5388.759718985524,22789.391611741976,0.0,0.0,0.0,0.0,169.62,170.31,172.06,167.76,156.67,Open
172,6549.150532382791,751.8679799876189,5722.3818567254375,23176.277956518887,0.0,0.0,0.0,0.0,169.62,170.31,172.06,167.76,156.67,Open
173,6875.575408408095,988.014160157938,5976.99057781584,22762.100131762047,0.0,0.0,0.0,0.0,169.62,170.31,172.06,167.76,156.67,Open
174,6791.778718445149,804.34987596868,5853.743058889278,22171.52233976392,0.0,0.0,0.0,0.0,169.62,170.31,172.06,167.76,156.67,Open
175,6392.3083415399005,420.34690622650464,5511.426092556249,22168.750723451463,0.0,0.0,0.0,0.0,169.63,170.2,171.97,167.58,156.35,Open
176,6198.60812409021,349.0448414140751,5395.554649299937,22789.682184419893,0.0,0.0,0.0,0.0,169.63,170.2,171.97,167.58,156.35,Open
177,6526.91054664976,736.8476077136527,5699.448966914292,23172.83578787277,0.0,0.0,0.0,0.0,169.63,170.2,171.97,167.58,156.35,Open
178,6859.54920763364,965.5506569803543,5947.598033857112,22742.005913496723,0.0,0.0,0.0,0.0,169.63,170.2,171.97,167.58,156.35,Open
179,6785.67669220885,766.8212970282194,5840.220253493817,22156.18904306758,0.0,0.0,0.0,0.0,169.63,170.2,171.97,167.58,156.35,Open
180,6339.938204281117,361.83003924251074,5463.727469888624,22097.42630689458,0.0,0.0,0.0,0.0,169.63,170.2,171.97,167.58,156.35,Open
181,6128.066018589261,295.46770995470405,5327.962974067089,22732.238201169755,0.0,0.0,0.0,0.0,169.63,170.2,171.97,167.58,156.35,Open
182,6519.780340168517,743.1060961611386,5690.664731343357,23209.000910401453,0.0,0.0,0.0,0.0,169.63,170.2,171.97,167.58,156.35,Open
183,6898.687112174883,1020.2230239180356,5990.04399657774,22803.741431682283,0.0,0.0,0.0,0.0,169.63,170.2,171.97,167.58,156.35,Open
184,6833.554128832117,822.6336029331211,5897.351312321582,22158.647734957663,0.0,0.0,0.0,0.0,169.63,170.2,171.97,167.58,156.35,Open
185,6396.510469497499,402.8678420624545,5515.270592602563,22118.079318771284,0.0,0.0,0.0,0.0,169.63,170.2,171.97,167.58,156.35,Open
186,6162.063021905783,308.47642522769274,5340.926985851167,22741.53652686316,0.0,0.0,0.0,0.0,169.63,170.2,171.97,167.58,156.35,Open
187,6488.912581075738,701.8447758966417,5659.171123405829,23161.168177267096,0.0,0.0,0.0,0.0,169.63,170.2,171.97,167.58,156.35,Open
188,6845.177035948877,953.3913079966676,5941.093676220617,22770.236166743776,0.0,0.0,0.0,0.0,169.63,170.2,171.97,167.58,156.35,Open
189,6807.782567475148,774.1750209540154,5861.767335148733,22152.925688377105,0.0,0.0,0.0,0.0,169.63,170.2,171.97,167.58,156.35,Open
190,6366.961463327582,368.8484870014772,5490.549563234993,22084.17172243258,0.0,0.0,0.0,0.0,169.63,170.2,171.97,167.58,156.35,Open
191,6129.295364534302,310.91276537332124,5340.926985851167,22711.696948015328,0.0,0.0,0.0,0.0,169.63,170.2,171.97,167.58,156.35,Open
192,6493.025302055515,745.8553607291414,5667.4412688542925,23183.45286648904,0.0,0.0,0.0,0.0,169.57,170.42,172.17,167.9,156.98,Open
193,6899.134147063988,1024.91689025365,5977.147040027027,22814.85024867657,0.0,0.0,0.0,0.0,169.57,170.42,172.17,167.9,156.98,Open
194,6849.200349950833,827.7298006689311,5889.528201762224,22151.38341800969,0.0,0.0,0.0,0.0,169.57,170.42,172.17,167.9,156.98,Open
195,6398.052739864915,391.7366733237116,5512.834252456934,22085.982213733463,0.0,0.0,0.0,0.0,169.57,170.42,172.17,167.9,156.98,Open
196,6156.944472425517,299.26750651210625,5353.846294146335,22739.770739051197,0.0,0.0,0.0,0.0,169.57,170.42,172.17,167.9,156.98,Open
197,6482.654092628252,703.7893776642535,5667.97771072122,23190.583072970283,0.0,0.0,0.0,0.0,169.57,170.42,172.17,167.9,156.98,Open
198,6833.911756743402,949.0103660834272,5941.272490176259,22762.725980606792,0.0,0.0,0.0,0.0,169.57,170.42,172.17,167.9,156.98,Open
199,6797.232544092244,773.8844482760965,5865.20950379485,22105.07060349829,0.0,0.0,0.0,0.0,169.57,170.42,172.17,167.9,156.98,Open
200,6392.107175839803,398.1516239823847,5523.384275839839,22068.95018445852,0.0,0.0,0.0,0.0,169.57,170.42,172.17,167.9,156.98,Open
201,6151.825922945252,308.0070385941313,5355.366212769296,22725.197401666333,0.0,0.0,0.0,0.0,169.57,170.42,172.17,167.9,156.98,Open
202,6482.408223439244,702.6941421859434,5667.038937454097,23190.62777645919,0.0,0.0,0.0,0.0,169.57,170.42,172.17,167.9,156.98,Open
203,6868.042870526657,989.3776165697118,5978.488144694346,22792.14087630998,0.0,0.0,0.0,0.0,169.57,170.42,172.17,167.9,156.98,Open
204,6841.556053347118,825.3605157566686,5921.625306800045,22127.24353399796,0.0,0.0,0.0,0.0,169.57,170.42,172.17,167.9,156.98,Open
205,6393.113004340292,380.56080109605807,5527.117017163875,22051.13584412764,0.0,0.0,0.0,0.0,169.57,170.42,172.17,167.9,156.98,Open
206,6138.236062316426,266.8351253074557,5341.798703884924,22698.867046697986,0.0,0.0,0.0,0.0,169.57,170.42,172.17,167.9,156.98,Open
207,6478.340205948378,698.7825869062647,5672.179838678818,23187.20795955753,0.0,0.0,0.0,0.0,169.57,170.42,172.17,167.9,156.98,Open
208,6866.321786203598,1006.5437563113876,5977.951702827419,22810.42460327442,0.0,0.0,0.0,0.0,169.57,170.42,172.17,167.9,156.98,Open
209,6850.295585429142,835.0835245947271,5913.131643907028,22148.075359830305,0.0,0.0,0.0,0.0,169.57,170.42,172.17,167.9,156.98,Open
210,6415.375341817778,405.7065136082785,5540.908043492799,22056.433207563547,0.0,0.0,0.0,0.0,169.57,170.42,172.17,167.9,156.98,Open
211,6182.380757615657,316.52305323160334,5393.9006202102455,22738.362579150507,0.0,0.0,0.0,0.0,169.57,170.42,172.17,167.9,156.98,Open
212,6525.547090237987,737.6522705140437,5738.743333666723,23259.582908103814,0.0,0.0,0.0,0.0,169.57,170.42,172.17,167.9,156.98,Open
213,6879.3305014765865,998.2512591184689,6003.075063595184,22821.309902824152,0.0,0.0,0.0,0.0,169.57,170.42,172.17,167.9,156.98,Open
214,6810.844756465525,792.1458234960824,5871.5350474757015,22085.870455011183,0.0,0.0,0.0,0.0,169.57,170.42,172.17,167.9,156.98,Open
215,6363.787515614929,352.12938214890744,5485.565124221459,22004.755974382875,0.0,0.0,0.0,0.0,169.57,170.42,172.17,167.9,156.98,Open
216,6120.533480707823,257.8944275253329,5333.774427625469,22680.516264500173,0.0,0.0,0.0,0.0,169.57,170.42,172.17,167.9,156.98,Open
217,6460.212941195124,691.9206013584854,5665.183742664307,23191.25362530394,0.0,0.0,0.0,0.0,169.59,170.37,172.15,167.92,157.03,Open
218,6852.486056385763,994.1161863942368,5962.171371241971,22802.534437481696,0.0,0.0,0.0,0.0,169.59,170.37,172.15,167.92,157.03,Open
219,6860.398573922941,838.123361840649,5921.26767888876,22144.29791501736,0.0,0.0,0.0,0.0,169.59,170.37,172.15,167.92,157.03,Open
220,6423.489025055054,402.5996211289908,5549.379354641361,22049.79473946032,0.0,0.0,0.0,0.0,169.59,170.37,172.15,167.92,157.03,Open
221,6164.208789373492,291.1091197859192,5367.838486175357,22710.78052649266,0.0,0.0,0.0,0.0,169.59,170.37,172.15,167.92,157.03,Open
222,6480.530676904998,695.0498455822284,5672.6045218234685,23218.232180861494,0.0,0.0,0.0,0.0,169.59,170.37,172.15,167.92,157.03,Open
223,6844.841759782048,963.3154825348238,5960.494990407824,22789.95040535336,0.0,0.0,0.0,0.0,169.59,170.37,172.15,167.92,157.03,Open
224,6831.251899153221,802.8523090901743,5904.146242635995,22093.201827192526,0.0,0.0,0.0,0.0,169.59,170.37,172.15,167.92,157.03,Open
225,6400.310266054901,399.9397635388093,5536.348287623917,22015.32834951024,0.0,0.0,0.0,0.0,169.59,170.37,172.15,167.92,157.03,Open
226,6152.563530512278,298.1946227782515,5372.934683911167,22707.137192146445,0.0,0.0,0.0,0.0,169.59,170.37,172.15,167.92,157.03,Open
227,6475.903865802749,695.094549071139,5688.384853408916,23217.6286837612,0.0,0.0,0.0,0.0,169.59,170.37,172.15,167.92,157.03,Open
228,6861.069126256601,988.014160157938,5983.427880218969,22822.49454528029,0.0,0.0,0.0,0.0,169.59,170.37,172.15,167.92,157.03,Open
229,6848.015707494701,829.6073472031769,5914.897431718998,22093.447696381536,0.0,0.0,0.0,0.0,169.59,170.37,172.15,167.92,157.03,Open
230,6398.432719520655,387.400434899382,5536.728267279657,21984.14766599508,0.0,0.0,0.0,0.0,169.59,170.37,172.15,167.92,157.03,Open
231,6137.096123349205,265.2034479622183,5357.221407559086,22675.129494086446,0.0,0.0,0.0,0.0,169.59,170.37,172.15,167.92,157.03,Open
232,6473.936912290682,690.1324618020609,5665.228446153217,23225.07181466482,0.0,0.0,0.0,0.0,169.59,170.37,172.15,167.92,157.03,Open
233,6866.83587632607,994.406759072156,5969.770964356776,22827.970722671835,0.0,0.0,0.0,0.0,169.63,170.12,171.85,167.4,156.65,Open
234,6856.64348085445,829.4955884809004,5918.227841642838,22101.539027874354,0.0,0.0,0.0,0.0,169.63,170.12,171.85,167.4,156.65,Open
235,6405.272353323979,377.2527429166726,5524.993601440621,21986.293433462797,0.0,0.0,0.0,0.0,169.63,170.12,171.85,167.4,156.65,Open
236,6139.085428605727,260.5766368599697,5339.049439316922,22680.605671477995,0.0,0.0,0.0,0.0,169.63,170.12,171.85,167.4,156.65,Open
237,6449.126475945292,669.032415036251,5639.814512707533,23207.860971434235,0.0,0.0,0.0,0.0,169.63,170.12,171.85,167.4,156.65,Open
238,6840.170245190889,963.5166482349216,5954.594129871623,22797.594701957078,0.0,0.0,0.0,0.0,169.63,170.12,171.85,167.4,156.65,Open
239,6851.994318007746,813.5140911953558,5925.738027779821,22087.14450444514,0.0,0.0,0.0,0.0,169.63,170.12,171.85,167.4,156.65,Open
240,6417.834033707862,399.559783883069,5558.632976845858,21978.44797115898,0.0,0.0,0.0,0.0,169.63,170.12,171.85,167.4,156.65,Open
241,6122.567489453255,289.07511104048626,5338.110666049799,22722.51519233169,0.0,0.0,0.0,0.0,169.63,170.12,171.85,167.4,156.65,Open
242,6407.440472536144,710.9195841454964,5602.040064578065,23451.226765063617,0.0,0.0,0.0,0.0,169.63,170.12,171.85,167.4,156.65,Open
243,6877.788231109171,1090.720425930074,5983.763156385799,23069.213100577963,0.0,0.0,0.0,0.0,169.63,170.12,171.85,167.4,156.65,Open
244,6980.315682925664,973.2843605618908,6026.4996917843455,22087.390373634145,0.0,0.0,0.0,0.0,169.63,170.12,171.85,167.4,156.65,Open
245,6487.437365941688,433.6461941774123,5590.037177805564,21759.64674468598,0.0,0.0,0.0,0.0,169.63,170.12,171.85,167.4,156.65,Open
246,6089.799832081775,203.91496466576632,5288.623903825749,22533.55354470653,0.0,0.0,0.0,0.0,169.63,170.12,171.85,167.4,156.65,Open
247,6358.646614390209,650.5028188828014,5577.699014866235,23368.30179313443,0.0,0.0,0.0,0.0,169.63,170.12,171.85,167.4,156.65,Open
248,6865.628882125483,1081.176231047658,6003.589153717656,23029.963437314444,0.0,0.0,0.0,0.0,169.63,170.12,171.85,167.4,156.65,Open
249,6989.85987780808,967.0035203699496,6045.990412949373,22029.007617116884,0.0,0.0,0.0,0.0,169.67,170.16,171.89,167.87,156.83,Open
250,6500.513136448042,417.3294207250382,5594.328712740983,21735.976247307808,0.0,0.0,0.0,0.0,169.67,170.16,171.89,167.87,156.83,Open
251,6117.426588228535,214.71085723767965,5310.886241303235,22571.93148993629,0.0,0.0,0.0,0.0,169.67,170.16,171.89,167.87,156.83,Open
252,6372.348233741312,649.7205078268657,5576.402613687827,23416.40274720225,0.0,0.0,0.0,0.0,169.67,170.16,171.89,167.87,156.83,Open
253,6822.668829282383,1024.693372809097,5934.701077306399,22969.390209840563,0.0,0.0,0.0,0.0,169.67,170.16,171.89,167.87,156.83,Open
254,6924.70454272086,883.7209205294754,5977.728185382865,21938.214831139427,0.0,0.0,0.0,0.0,169.67,170.16,171.89,167.87,156.83,Open
255,6451.674574813196,352.21878912672867,5565.964349027199,21680.32040361409,0.0,0.0,0.0,0.0,169.67,170.16,171.89,167.87,156.83,Open
256,6090.2468669708815,189.05105460298716,5299.509203375484,22549.4232832698,0.0,0.0,0.0,0.0,169.67,170.16,171.89,167.87,156.83,Open
257,6364.279253992946,665.4114324344913,5577.788421844056,23411.038328532974,0.0,0.0,0.0,0.0,169.67,170.16,171.89,167.87,156.83,Open
258,6878.995225309757,1097.627114966764,5997.04009259225,23027.482393679908,0.0,0.0,0.0,0.0,169.67,170.16,171.89,167.87,156.83,Open
259,6998.308837212186,950.9102643621284,6047.555035061245,21993.915378322054,0.0,0.0,0.0,0.0,169.67,170.16,171.89,167.87,156.83,Open
260,6473.020490768015,356.21975138422863,5588.740776627157,21663.46718829479,0.0,0.0,0.0,0.0,169.67,170.16,171.89,167.87,156.83,Open
261,6060.072011956217,150.78486809550145,5270.18371465012,22515.962721820204,0.0,0.0,0.0,0.0,169.67,170.16,171.89,167.87,156.83,Open
262,6327.175358197136,625.8041412596872,5533.196691655719,23389.044211988952,0.0,0.0,0.0,0.0,169.67,170.16,171.89,167.87,156.83,Open
263,6874.368414207508,1071.8332018653396,5993.910848368508,23035.216097261444,0.0,0.0,0.0,0.0,169.67,170.16,171.89,167.87,156.83,Open
264,7024.393322991529,954.7771161528964,6079.361567421147,22011.30503550828,0.0,0.0,0.0,0.0,169.67,170.16,171.89,167.87,156.83,Open
265,6500.356674236856,390.1496994673848,5604.565811701514,21683.15907515992,0.0,0.0,0.0,0.0,169.67,170.16,171.89,167.87,156.83,Open
266,6087.162326236049,178.61278994235877,5284.533534590428,22530.178431293774,0.0,0.0,0.0,0.0,169.67,170.16,171.89,167.87,156.83,Open
267,6356.143219011214,630.0286209617402,5571.261712463107,23442.241363792586,0.0,0.0,0.0,0.0,169.67,170.16,171.89,167.87,156.83,Open
268,6858.029289010678,1040.272538694446,5972.654339391511,23040.871088608637,0.0,0.0,0.0,0.0,169.67,170.16,171.89,167.87,156.83,Open
269,6980.852124792591,907.3914179076456,6020.420017292502,21958.19729068247,0.0,0.0,0.0,0.0,169.67,170.16,171.89,167.87,156.83,Open
270,6448.679441056185,316.7689224206117,5566.925474038777,21624.99983608721,0.0,0.0,0.0,0.0,169.67,170.16,171.89,167.87,156.83,Open
271,6024.175110360994,97.02892268048797,5235.069124110833,22510.039509539547,0.0,0.0,0.0,0.0,169.67,170.16,171.89,167.87,156.83,Open
272,6291.144346135181,589.3707977975366,5500.719606962158,23423.264732750027,0.0,0.0,0.0,0.0,169.67,170.16,171.89,167.87,156.83,Open
273,6846.540492360651,1069.173344275158,5967.379327700059,23040.0887775527,0.0,0.0,0.0,0.0,169.67,170.16,171.89,167.87,156.83,Open
274,7019.833567122647,972.5467529948656,6051.734811274388,21972.39064841159,0.0,0.0,0.0,0.0,169.38,170.24,172.17,168.16,156.73,Open
275,6507.397473740277,384.8076325425664,5601.771843644601,21662.640173749947,0.0,0.0,0.0,0.0,169.38,170.24,172.17,168.16,156.73,Open
276,6098.762881608353,158.33975772139524,5298.793947552914,22573.071428903517,0.0,0.0,0.0,0.0,169.38,170.24,172.17,168.16,156.73,Open
277,6328.985849498016,596.4563007898689,5530.358020109895,23457.239384322096,0.0,0.0,0.0,0.0,169.38,170.24,172.17,168.16,156.73,Open
278,6843.008916736712,1022.3240878968344,5945.228748944849,23047.196632289488,0.0,0.0,0.0,0.0,169.38,170.24,172.17,168.16,156.73,Open
279,6981.589732359616,904.5303946173664,6012.909831155519,21944.56272656473,0.0,0.0,0.0,0.0,169.38,170.24,172.17,168.16,156.73,Open
280,6454.08856321437,329.7329342046898,5553.939110510244,21601.239931731216,0.0,0.0,0.0,0.0,169.38,170.24,172.17,168.16,156.73,Open
281,6043.531721059289,130.53418761899326,5250.402420807174,22497.723698344675,0.0,0.0,0.0,0.0,169.38,170.24,172.17,168.16,156.73,Open
282,6334.506730378477,620.9985162017962,5536.728267279657,23467.45413153817,0.0,0.0,0.0,0.0,169.38,170.24,172.17,168.16,156.73,Open
283,6889.701710903849,1074.6718734111637,5994.782566402265,23084.05465889629,0.0,0.0,0.0,0.0,169.38,170.24,172.17,168.16,156.73,Open
284,7026.896718370524,949.0327178278826,6060.809619523242,21979.54320663729,0.0,0.0,0.0,0.0,169.38,170.24,172.17,168.16,156.73,Open
285,6485.068081029425,343.85923670044383,5583.15284051333,21627.972618099764,0.0,0.0,0.0,0.0,169.38,170.24,172.17,168.16,156.73,Open
286,6057.38980262158,121.57113809241513,5264.528723302928,22523.74112889065,0.0,0.0,0.0,0.0,169.38,170.24,172.17,168.16,156.73,Open
287,6296.329950848813,556.5137334482353,5507.156909365286,23446.242326050084,0.0,0.0,0.0,0.0,169.38,170.24,172.17,168.16,156.73,Open
288,6805.033302907146,986.8965729351728,5931.79535052721,23015.41245167404,0.0,0.0,0.0,0.0,169.38,170.24,172.17,168.16,156.73,Open
289,6964.0436129622,926.3680489502012,6013.960363144918,21917.360653562624,0.0,0.0,0.0,0.0,169.38,170.24,172.17,168.16,156.73,Open
290,6461.285824928978,362.3888328538934,5560.130543724364,21603.564513154568,0.0,0.0,0.0,0.0,169.38,170.24,172.17,168.16,156.73,Open
291,6052.181846163493,125.14741720526423,5246.423810294129,22516.812088109506,0.0,0.0,0.0,0.0,169.72,170.19,172.06,167.65,157.06,Open
292,6344.073277005348,605.5758125276343,5538.069371946976,23491.258739383076,0.0,0.0,0.0,0.0,169.72,170.19,172.06,167.65,157.06,Open
293,6897.569524952117,1073.30841699939,5993.6873309239545,23100.259673626384,0.0,0.0,0.0,0.0,169.72,170.19,172.06,167.65,157.06,Open
294,7054.858750684113,967.8752384037064,6077.931055776007,21979.431447915013,0.0,0.0,0.0,0.0,169.72,170.19,172.06,167.65,157.06,Open
295,6485.537467662986,335.00794589614225,5579.889485822855,21592.32158569355,0.0,0.0,0.0,0.0,169.72,170.19,172.06,167.65,157.06,Open
296,6007.858336908619,68.351634544329,5194.523059668906,22477.69653531272,0.0,0.0,0.0,0.0,169.72,170.19,172.06,167.65,157.06,Open
297,6269.9772441360055,540.9792710517968,5464.353318733373,23428.67385490821,0.0,0.0,0.0,0.0,169.72,170.19,172.06,167.65,157.06,Open
298,6843.120675458989,1033.432904891122,5958.729202595854,23055.62323994914,0.0,0.0,0.0,0.0,169.72,170.19,172.06,167.65,157.06,Open
299,7014.536203686739,947.6692614161088,6044.157569904038,21937.566630550224,0.0,0.0,0.0,0.0,169.72,170.19,172.06,167.65,157.06,Open
300,6485.313950218434,351.79410598207784,5570.948788040732,21591.06988800405,0.0,0.0,0.0,0.0,169.72,170.19,172.06,167.65,157.06,Open
301,6054.707593286943,130.02009749652117,5248.8601504397575,22510.844172339937,0.0,0.0,0.0,0.0,169.72,170.19,172.06,167.65,157.06,Open
302,6315.038360957905,590.2201640868383,5511.202575111696,23491.772829505546,0.0,0.0,0.0,0.0,169.72,170.19,172.06,167.65,157.06,Open
303,6846.182864449366,1029.208425189069,5943.351202410603,23073.683449469027,0.0,0.0,0.0,0.0,169.72,170.19,172.06,167.65,157.06,Open
304,6991.580962131138,911.0124005094052,6024.800959205742,21906.22948482388,0.0,0.0,0.0,0.0,169.72,170.19,172.06,167.65,157.06,Open
305,6452.076906213392,306.9565066047319,5563.9526920262215,21542.23132636921,0.0,0.0,0.0,0.0,169.72,170.19,172.06,167.65,157.06,Open
306,6033.361677332125,109.25532689754093,5267.143877404199,22506.03854728205,0.0,0.0,0.0,0.0,169.72,170.19,172.06,167.65,157.06,Open
307,6302.3872735962,604.3464665825924,5521.573784538959,23478.27237585454,0.0,0.0,0.0,0.0,169.83,170.03,171.94,167.66,157.18,Open
308,6879.352853221042,1063.7865738614291,5971.715566124388,23101.511371315883,0.0,0.0,0.0,0.0,169.83,170.03,171.94,167.66,157.18,Open
309,7023.633363680049,927.1280082616815,6034.076933154694,21940.15943290704,0.0,0.0,0.0,0.0,169.83,170.03,171.94,167.66,157.18,Open
310,6460.749383062052,309.32579151699446,5521.082046160942,21567.75701853717,0.0,0.0,0.0,0.0,169.83,170.03,171.94,167.66,157.18,Open
311,6025.8514911951415,95.41959707970584,5199.015760304423,22502.819896080484,0.0,0.0,0.0,0.0,169.83,170.03,171.94,167.66,157.18,Open
312,6296.6875787600975,569.164820809939,5484.000502109588,23484.10618115737,0.0,0.0,0.0,0.0,169.83,170.03,171.94,167.66,157.18,Open
313,6868.847533327047,1056.7681261024627,5963.735993353844,23089.486132798927,0.0,0.0,0.0,0.0,169.83,170.03,171.94,167.66,157.18,Open
314,7035.636250452549,958.4651539880222,6062.374241635113,21942.39460735257,0.0,0.0,0.0,0.0,169.83,170.03,171.94,167.66,157.18,Open
315,6470.762964578029,318.3558962769385,5559.8623227909,21545.69584675978,0.0,0.0,0.0,0.0,169.83,170.03,171.94,167.66,157.18,Open
316,6026.678505739988,76.95705615962221,5216.427769235107,22479.328212657954,0.0,0.0,0.0,0.0,169.83,170.03,171.94,167.66,157.18,Open
317,6277.286264572891,552.1551432794504,5462.006385565565,23452.29964879747,0.0,0.0,0.0,0.0,169.83,170.03,171.94,167.66,157.18,Open
318,6851.949614518835,1047.8274283203398,5950.123780980562,23068.0955133552,0.0,0.0,0.0,0.0,169.83,170.03,171.94,167.66,157.18,Open
319,7017.687799654937,951.4690579735112,6037.586157034178,21926.368406578116,0.0,0.0,0.0,0.0,169.83,170.03,171.94,167.66,157.18,Open
320,6474.115726246325,331.6998877167568,5548.23941567414,21553.138977663395,0.0,0.0,0.0,0.0,169.83,170.03,171.94,167.66,157.18,Open
321,6030.031267408284,78.4993265270384,5206.0118563189335,22487.665413339782,0.0,0.0,0.0,0.0,169.83,170.03,171.94,167.66,157.18,Open
322,6271.0948313587705,541.8286373410986,5469.829496124923,23471.924480429232,0.0,0.0,0.0,0.0,169.83,170.03,171.94,167.66,157.18,Open
323,6846.741658060749,1045.2569777079796,5952.0683827481735,23091.65425201109,0.0,0.0,0.0,0.0,169.83,170.03,171.94,167.66,157.18,Open
324,7035.144512074532,964.410718013134,6055.981642720895,21944.56272656473,0.0,0.0,0.0,0.0,169.45,170.09,171.91,167.56,157.29,Open
325,6491.23716249909,336.661974985835,5566.210218216207,21570.193358682794,0.0,0.0,0.0,0.0,169.45,170.09,171.91,167.56,157.29,Open
326,6033.160511632027,83.66257949621433,5211.420978477118,22483.12800921536,0.0,0.0,0.0,0.0,169.45,170.09,171.91,167.56,157.29,Open
327,6279.789659951885,566.393204497481,5471.684690914713,23477.40065782078,0.0,0.0,0.0,0.0,169.45,170.09,171.91,167.56,157.29,Open
328,6864.8912745584585,1064.4571261950882,5964.898284065519,23115.972949978463,0.0,0.0,0.0,0.0,169.45,170.09,171.91,167.56,157.29,Open
329,7071.2202276253975,983.1861833555918,6101.266276987348,21978.246805458883,0.0,0.0,0.0,0.0,169.45,170.09,171.91,167.56,157.29,Open
330,6495.1487177787685,346.02735591260864,5571.373471185383,21558.8386724995,0.0,0.0,0.0,0.0,169.45,170.09,171.91,167.56,157.29,Open
331,6017.402531791036,86.79182371995732,5192.220829990009,22458.74225601462,0.0,0.0,0.0,0.0,169.45,170.09,171.91,167.56,157.29,Open
332,6263.674052199609,547.5059804327465,5455.457324440161,23463.02848613602,0.0,0.0,0.0,0.0,169.45,170.09,171.91,167.56,157.29,Open
333,6850.1167714735,1039.4455241495996,5938.992612241818,23108.19454290802,0.0,0.0,0.0,0.0,169.45,170.09,171.91,167.56,157.29,Open
334,7046.432143024462,953.2795492743908,6063.894160258074,21956.69972380397,0.0,0.0,0.0,0.0,169.45,170.09,171.91,167.56,157.29,Open
335,6477.155563492247,314.77961716408936,5560.935206524755,21546.36639909344,0.0,0.0,0.0,0.0,169.45,170.09,171.91,167.56,157.29,Open
336,5982.891438352041,51.990157603044224,5178.273341449898,22419.91727589575,0.0,0.0,0.0,0.0,169.45,170.09,171.91,167.56,157.29,Open
337,6210.387493418157,502.15429093292846,5410.329152384896,23406.836200575377,0.0,0.0,0.0,0.0,169.45,170.09,171.91,167.56,157.29,Open
338,6830.648402052928,1024.6039658312757,5923.256984145282,23092.593025278216,0.0,0.0,0.0,0.0,169.45,170.09,171.91,167.56,157.29,Open
339,7039.659564454504,968.5234389929104,6068.029232982306,21950.709456289944,0.0,0.0,0.0,0.0,169.45,170.09,171.91,167.56,157.29,Open
340,6482.743499606073,354.0739839165192,5613.931192628288,21540.17496587932,0.0,0.0,0.0,0.0,169.45,170.09,171.91,167.56,157.29,Open
341,6065.816410281231,138.22318771161886,5253.062278397355,22494.326233187465,0.0,0.0,0.0,0.0,169.45,170.09,171.91,167.56,157.29,Open
342,6332.942108266605,593.0588356326623,5476.736185161613,23530.08371950194,0.0,0.0,0.0,0.0,169.45,170.09,171.91,167.56,157.29,Open
343,6899.581181953095,1074.4036524776998,5973.928388825463,23165.99615406944,0.0,0.0,0.0,0.0,169.45,170.09,171.91,167.56,157.29,Open
344,7067.711003745914,963.4495930015556,6072.879561529107,21975.09520949068,0.0,0.0,0.0,0.0,169.45,170.09,171.91,167.56,157.29,Open
345,6470.964130278127,316.85832939843294,5536.929432979755,21499.42773573729,0.0,0.0,0.0,0.0,169.45,170.09,171.91,167.56,157.29,Open
346,5993.642627435044,78.07464338238756,5169.131477967677,22421.97363638564,0.0,0.0,0.0,0.0,169.45,170.09,171.91,167.56,157.29,Open
347,6255.158037562137,546.2989862321599,5452.663356383247,23473.64556475229,0.0,0.0,0.0,0.0,169.45,170.09,171.91,167.56,157.29,Open
348,6836.996297478235,1031.957689757072,5940.93721400943,23114.29656914432,0.0,0.0,0.0,0.0,169.61,169.97,171.85,167.65,157.05,Open
349,7043.839340667647,974.603113484754,6058.842666011175,21956.856186015157,0.0,0.0,0.0,0.0,169.61,169.97,171.85,167.65,157.05,Open
350,6515.511156977554,354.69983276126777,5594.663988907813,21552.982515452208,0.0,0.0,0.0,0.0,169.61,169.97,171.85,167.65,157.05,Open
351,6049.834912995686,87.55178303143776,5233.392743276685,22459.59162230392,0.0,0.0,0.0,0.0,169.61,169.97,171.85,167.65,157.05,Open
352,6246.418505480112,517.5769946070903,5438.157074231753,23448.76807317353,0.0,0.0,0.0,0.0,169.61,169.97,171.85,167.65,157.05,Open
353,6818.421997835875,1005.917907466639,5922.564080067168,23085.61928100816,0.0,0.0,0.0,0.0,169.61,169.97,171.85,167.65,157.05,Open
354,7027.790788148736,952.6089969407316,6047.219758894416,21922.68036874299,0.0,0.0,0.0,0.0,169.61,169.97,171.85,167.65,157.05,Open
355,6501.518964948531,348.86602745843265,5563.371546670383,21530.809584952545,0.0,0.0,0.0,0.0,169.61,169.97,171.85,167.65,157.05,Open
356,6059.803791022753,119.9171090027224,5228.497711240972,22464.978392717647,0.0,0.0,0.0,0.0,169.61,169.97,171.85,167.65,157.05,Open
357,6309.137500421703,586.0180361292406,5493.209420825175,23504.75919303408,0.0,0.0,0.0,0.0,169.61,169.97,171.85,167.65,157.05,Open
358,6870.546265905651,1060.9255505711496,5963.624234631567,23145.209031726008,0.0,0.0,0.0,0.0,169.61,169.97,171.85,167.65,157.05,Open
359,7065.58758802266,972.9937878839718,6082.15553547806,21993.848323088685,0.0,0.0,0.0,0.0,169.61,169.97,171.85,167.65,157.05,Open
360,6513.946534865682,342.9651669222316,5589.0760527939865,21549.16036715035,0.0,0.0,0.0,0.0,169.61,169.97,171.85,167.65,157.05,Open
361,6028.488997040868,71.95026540163343,5202.793205117369,22425.43815677621,0.0,0.0,0.0,0.0,169.61,169.97,171.85,167.65,157.05,Open
362,6210.5663073738,499.136805431462,5404.40594010424,23397.359060926326,0.0,0.0,0.0,0.0,169.61,169.97,171.85,167.65,157.05,Open
363,6812.901116955414,1003.0568841763596,5929.895452248508,23076.835045437223,0.0,0.0,0.0,0.0,169.61,169.97,171.85,167.65,157.05,Open
364,7062.883026943568,966.020043613916,6091.789137338297,21974.75993332385,0.0,0.0,0.0,0.0,169.61,169.97,171.85,167.65,157.05,Open
365,6510.19144179719,376.336321394005,5585.656235892325,21517.197372579263,0.0,0.0,0.0,0.0,169.5,170.26,172.12,167.82,156.9,Open
366,6063.804753280253,149.84609482837854,5242.221682336532,22457.982296703136,0.0,0.0,0.0,0.0,169.5,170.26,172.12,167.82,156.9,Open
367,6288.305674589357,563.4427742293805,5475.708004916669,23497.11489643036,0.0,0.0,0.0,0.0,169.5,170.26,172.12,167.82,156.9,Open
368,6847.121637716489,1021.2512041629795,5938.299708163704,23143.934982292056,0.0,0.0,0.0,0.0,169.5,170.26,172.12,167.82,156.9,Open
369,7013.128043786054,919.5954703802432,6036.937956444974,21947.893136488576,0.0,0.0,0.0,0.0,169.5,170.26,172.12,167.82,156.9,Open
370,6443.963222976116,289.2092215072181,5527.787569497535,21459.68633409576,0.0,0.0,0.0,0.0,169.5,170.26,172.12,167.82,156.9,Open
371,6052.047735696761,96.62659128029244,5243.51808351494,22429.68498822272,0.0,0.0,0.0,0.0,169.5,170.26,172.12,167.82,156.9,Open
372,6287.568067022332,571.1317743220061,5494.528173748037,23473.26558509655,0.0,0.0,0.0,0.0,169.5,170.26,172.12,167.82,156.9,Open
373,6848.485094128263,1059.942073815116,5973.593112658634,23115.838839511736,0.0,0.0,0.0,0.0,169.5,170.26,172.12,167.82,156.9,Open
374,7080.205628896431,1002.4086835871558,6145.746248453409,22007.482887206424,0.0,0.0,0.0,0.0,169.5,170.26,172.12,167.82,156.9,Open
375,6527.782264683517,357.76202175164485,5587.891410337855,21552.55783230756,0.0,0.0,0.0,0.0,169.5,170.26,172.12,167.82,156.9,Open
376,6050.86309324063,76.75589045952445,5205.654228407649,22423.78412768652,0.0,0.0,0.0,0.0,169.5,170.26,172.12,167.82,156.9,Open
377,6230.526415172389,489.48085182676937,5434.245518952074,23420.470764693117,0.0,0.0,0.0,0.0,169.5,170.26,172.12,167.82,156.9,Open
378,6796.673750480861,1000.3299713528124,5895.518469276246,23092.99535667841,0.0,0.0,0.0,0.0,169.5,170.26,172.12,167.82,156.9,Open
379,7009.887040840035,985.466061290033,6026.47734003989,21944.80859575374,0.0,0.0,0.0,0.0,169.5,170.26,172.12,167.82,156.9,Open
380,6494.120537533825,369.8766672464213,5576.000282287631,21494.08566881248,0.0,0.0,0.0,0.0,169.5,170.26,172.12,167.82,156.9,Open
381,6098.964047308451,121.72760030360226,5270.831915239324,22445.130043641337,0.0,0.0,0.0,0.0,169.78,170.38,172.12,168.05,157.02,Open
382,6310.545660322387,559.1959427828721,5490.147231834797,23503.7980680225,0.0,0.0,0.0,0.0,169.78,170.38,172.12,168.05,157.02,Open
383,6854.07303024209,1051.0237277774488,5948.715621079877,23167.091389547757,0.0,0.0,0.0,0.0,169.78,170.38,172.12,168.05,157.02,Open
384,7057.272739085286,985.9801514125052,6070.2867591722925,21989.13210500861,0.0,0.0,0.0,0.0,169.78,170.38,172.12,168.05,157.02,Open
385,6513.723017421129,341.9593384217428,5581.364700956906,21500.031232837588,0.0,0.0,0.0,0.0,169.78,170.38,172.12,168.05,157.02,Open
386,6050.013726951329,86.16597487520873,5221.36750475973,22386.479066190608,0.0,0.0,0.0,0.0,169.78,170.38,172.12,168.05,157.02,Open
387,6256.588549207277,529.9822127797858,5451.456362182661,23441.034369592,0.0,0.0,0.0,0.0,169.78,170.38,172.12,168.05,157.02,Open
388,6824.859300239004,1034.7963613028958,5938.36676339707,23134.301380431814,0.0,0.0,0.0,0.0,169.78,170.38,172.12,168.05,157.02,Open
389,7039.614860965594,984.0579013893488,6064.9446922474735,21966.69095357549,0.0,0.0,0.0,0.0,169.78,170.38,172.12,168.05,157.02,Open
390,6540.925090423238,378.9067720063653,5612.366570516417,21539.392654823383,0.0,0.0,0.0,0.0,169.78,170.38,172.12,168.05,157.02,Open
391,6087.452898913968,115.04442871146546,5264.8863512142125,22435.362331314365,0.0,0.0,0.0,0.0,169.78,170.38,172.12,168.05,157.02,Open
392,6259.360165519734,523.8354830545763,5456.306690729462,23463.386114047305,0.0,0.0,0.0,0.0,169.78,170.38,172.12,168.05,157.02,Open
393,6821.104207170512,1016.177358171625,5929.560176081679,23151.0651887733,0.0,0.0,0.0,0.0,169.78,170.38,172.12,168.05,157.02,Open
394,7027.120235815077,945.121162548204,6051.690107785476,21982.560692138755,0.0,0.0,0.0,0.0,169.78,170.38,172.12,168.05,157.02,Open
395,6474.048671012959,317.9088613878324,5555.928415766766,21464.35784868692,0.0,0.0,0.0,0.0,169.78,170.38,172.12,168.05,157.02,Open
396,6010.831118921175,93.54205054546006,5192.466699179018,22346.33533314888,0.0,0.0,0.0,0.0,169.78,170.38,172.12,168.05,157.02,Open
397,6240.182368777081,550.0987827895622,5441.643946366781,23427.77978513,0.0,0.0,0.0,0.0,169.78,170.38,172.12,168.05,157.02,Open
398,6851.279062185176,1055.6505388796973,5966.194685243927,23167.091389547757,0.0,0.0,0.0,0.0,169.78,170.38,172.12,168.05,157.02,Open
399,7084.519515576305,995.0549596613598,6118.812396384764,22040.250544577902,0.0,0.0,0.0,0.0,169.78,170.38,172.12,168.05,157.02,Open
400,6535.337154309411,360.3324723640052,5621.7766549321,21537.380997822405,0.0,0.0,0.0,0.0,169.78,170.38,172.12,168.05,157.02,Open
401,6054.841703753675,85.33896033036237,5236.365525289241,22385.406182456754,0.0,0.0,0.0,0.0,169.78,170.38,172.12,168.05,157.02,Open
402,6227.598336648744,495.8958024854425,5418.196966433164,23411.999453544555,0.0,0.0,0.0,0.0,169.78,170.38,172.12,168.05,157.02,Open
403,6797.791337703627,1001.7381312534966,5905.017960669752,23125.137165205146,0.0,0.0,0.0,0.0,169.78,170.38,172.12,168.05,157.02,Open
404,7041.246538310831,975.4524797740556,6073.259541184848,21995.97173881194,0.0,0.0,0.0,0.0,169.78,170.38,172.12,168.05,157.02,Open
405,6521.81434891395,372.402414369871,5607.069207080509,21505.01567185112,0.0,0.0,0.0,0.0,169.78,170.38,172.12,168.05,157.02,Open
406,6077.662834842544,119.82770202490116,5260.438354067606,22385.29442373448,0.0,0.0,0.0,0.0,169.62,170.36,172.18,167.95,156.69,Open
407,6270.781906936397,534.5643203931237,5470.0977170583865,23428.807965374945,0.0,0.0,0.0,0.0,169.62,170.36,172.18,167.95,156.69,Open
408,6835.006992221713,1029.6778118226305,5944.759362311288,23148.33827594975,0.0,0.0,0.0,0.0,169.62,170.36,172.18,167.95,156.69,Open
409,7028.43898873794,946.1716945376032,6061.882503257097,21955.738598792388,0.0,0.0,0.0,0.0,169.62,170.36,172.18,167.95,156.69,Open
410,6471.56762737842,289.00805580712034,5559.974081513176,21453.070217736986,0.0,0.0,0.0,0.0,169.62,170.36,172.18,167.95,156.69,Open
411,6030.590061019667,87.50707954252715,5230.0176298639335,22358.025295499003,0.0,0.0,0.0,0.0,169.62,170.36,172.18,167.95,156.69,Open
412,6227.844205837751,554.2115037693386,5448.707097614658,23400.689470850168,0.0,0.0,0.0,0.0,169.62,170.36,172.18,167.95,156.69,Open
413,6833.509425343207,1053.5494749008983,5950.213187958382,23159.603555155227,0.0,0.0,0.0,0.0,169.62,170.36,172.18,167.95,156.69,Open
414,7088.855754000635,1005.8955557221838,6124.042704587306,22039.6023439887,0.0,0.0,0.0,0.0,169.62,170.36,172.18,167.95,156.69,Open
415,6555.9007592082935,378.9291237508206,5635.366515560927,21531.278971586107,0.0,0.0,0.0,0.0,169.62,170.36,172.18,167.95,156.69,Open
416,6088.928114048018,105.14260591776444,5263.075859913333,22398.370194240837,0.0,0.0,0.0,0.0,169.62,170.36,172.18,167.95,156.69,Open
417,6240.495293199456,501.5507938326352,5439.766399832535,23416.693319880167,0.0,0.0,0.0,0.0,169.62,170.36,172.18,167.95,156.69,Open
418,6782.413337518375,983.1638316111364,5888.343559306092,23121.18090643655,0.0,0.0,0.0,0.0,169.62,170.36,172.18,167.95,156.69,Open
419,7010.155261773499,946.7751916378966,6037.183825633982,21974.29054669029,0.0,0.0,0.0,0.0,169.62,170.36,172.18,167.95,156.69,Open
420,6517.209889556157,365.2051526552621,5595.91568659731,21486.86605535341,0.0,0.0,0.0,0.0,169.62,170.36,172.18,167.95,156.69,Open
421,6090.291570459792,130.6682980857251,5271.860095484269,22377.247795730567,0.0,0.0,0.0,0.0,169.62,170.36,172.18,167.95,156.69,Open
422,6275.0287383829045,548.9811955667967,5488.739071934113,23422.9294565832,0.0,0.0,0.0,0.0,169.83,170.24,171.96,167.77,156.84,Open
423,6843.5230068591845,1047.7827248314293,5970.843848090631,23164.78915986886,0.0,0.0,0.0,0.0,169.83,170.24,171.96,167.77,156.84,Open
424,7049.874311670579,983.4767560335108,6071.605512095155,22005.11360229416,0.0,0.0,0.0,0.0,169.83,170.24,171.96,167.77,156.84,Open
425,6511.823119142428,349.13424839189634,5576.179096243274,21470.146950500843,0.0,0.0,0.0,0.0,169.83,170.24,171.96,167.77,156.84,Open
426,6041.520064058312,77.13587011526468,5211.108054054744,22301.117754115792,0.0,0.0,0.0,0.0,169.83,170.24,171.96,167.77,156.84,Open
427,6215.260173709414,494.0629594401073,5416.811158276935,23366.111322177807,0.0,0.0,0.0,0.0,169.83,170.24,171.96,167.77,156.84,Open
428,6793.566858001574,1006.8790324782173,5909.555364794179,23148.67355211658,0.0,0.0,0.0,0.0,169.83,170.24,171.96,167.77,156.84,Open
429,7063.799448466236,997.178375384614,6100.439262442501,22042.66453297908,0.0,0.0,0.0,0.0,169.83,170.24,171.96,167.77,156.84,Open
430,6547.585910270919,391.44610064579257,5636.68526848379,21517.04091036808,0.0,0.0,0.0,0.0,169.83,170.24,171.96,167.77,156.84,Open
431,6074.041852240784,133.14934172026418,5249.687164984603,22354.493719875067,0.0,0.0,0.0,0.0,169.83,170.24,171.96,167.77,156.84,Open
432,6254.845113139762,540.4428291848694,5440.727524844114,23414.30168322345,0.0,0.0,0.0,0.0,169.83,170.24,171.96,167.77,156.84,Open
433,6829.664925296895,1033.0082217464712,5929.31430689267,23164.25271800193,0.0,0.0,0.0,0.0,169.83,170.24,171.96,167.77,156.84,Open
434,7078.64100678456,1000.2405643749912,6098.919343819541,22043.89387892412,0.0,0.0,0.0,0.0,169.83,170.24,171.96,167.77,156.84,Open
435,6550.223416116645,369.563742824047,5628.102198612953,21507.384956763384,0.0,0.0,0.0,0.0,169.83,170.24,171.96,167.77,156.84,Open
436,6060.7202125454205,87.23885860906347,5244.613318993249,22312.584199021363,0.0,0.0,0.0,0.0,169.83,170.24,171.96,167.77,156.84,Open
437,6189.153336185615,478.8414214660432,5384.132907883276,23349.548679536427,0.0,0.0,0.0,0.0,169.83,170.24,171.96,167.77,156.84,Open
438,6767.281206522132,990.9422386815831,5870.171591063928,23128.735796062447,0.0,0.0,0.0,0.0,169.83,170.24,171.96,167.77,156.84,Open
439,7042.230015066864,984.9072676786504,6063.938863746985,22018.68111117853,0.0,0.0,0.0,0.0,169.83,170.24,171.96,167.77,156.84,Open
440,6551.743334739606,391.35669366797134,5624.592974733469,21497.997224092152,0.0,0.0,0.0,0.0,169.94,170.34,171.92,167.91,157.1,Open
441,6102.763843865853,132.16586496423065,5285.449956113095,22360.372228666813,0.0,0.0,0.0,0.0,169.94,170.34,171.92,167.91,157.1,Open
442,6233.18627276257,512.0561137266295,5427.1823677041975,23394.83331380288,0.0,0.0,0.0,0.0,169.94,170.34,171.92,167.91,157.1,Open
443,6811.470605310275,1020.982983229516,5903.542745535701,23168.63365991517,0.0,0.0,0.0,0.0,169.94,170.34,171.92,167.91,157.1,Open
444,7053.830570439169,994.5408695388876,6071.136125461594,22023.30792228078,0.0,0.0,0.0,0.0,169.94,170.34,171.92,167.91,157.1,Open
445,6534.107808364369,371.5083445916586,5600.2295732771845,21482.35100297344,0.0,0.0,0.0,0.0,169.94,170.34,171.92,167.91,157.1,Open
446,6066.956349248451,79.4380997941613,5232.029286864911,22332.052568441937,0.0,0.0,0.0,0.0,169.94,170.34,171.92,167.91,157.1,Open
447,6213.516737641899,481.0318924226633,5406.194079660664,23388.507770122025,0.0,0.0,0.0,0.0,169.94,170.34,171.92,167.91,157.1,Open
448,6804.072177895568,1044.5864253743202,5912.572850295645,23181.463561232515,0.0,0.0,0.0,0.0,169.94,170.34,171.92,167.91,157.1,Open
449,7072.226056125886,1038.149122971192,6108.910573591063,22057.12611164166,0.0,0.0,0.0,0.0,169.94,170.34,171.92,167.91,157.1,Open
450,6575.123259439857,406.55587989758016,5654.946643703776,21500.321805515505,0.0,0.0,0.0,0.0,169.94,170.34,171.92,167.91,157.1,Open
451,6094.7619193508535,101.49927157154936,5255.588025520805,22325.79407999445,0.0,0.0,0.0,0.0,169.94,170.34,171.92,167.91,157.1,Open
452,6226.771322103897,479.64608426643423,5405.59058256037,23397.336709181876,0.0,0.0,0.0,0.0,169.94,170.34,171.92,167.91,157.1,Open
453,6784.939084641825,1015.082122693315,5877.92764638992,23170.421799471595,0.0,0.0,0.0,0.0,169.94,170.34,171.92,167.91,157.1,Open
454,7035.2339190523535,1008.823634245829,6040.268366368815,22040.809338189287,0.0,0.0,0.0,0.0,169.94,170.34,171.92,167.91,157.1,Open
455,6554.447895818698,394.9106210363652,5601.838898877967,21493.146895545357,0.0,0.0,0.0,0.0,169.94,170.34,171.92,167.91,157.1,Open
456,6102.830899099219,114.12800718879788,5258.493752299995,22311.75718447652,0.0,0.0,0.0,0.0,169.94,170.47,172.21,168.06,157.07,Open
457,6237.880139098184,497.9074594864201,5428.948155516167,23404.69043310767,0.0,0.0,0.0,0.0,169.94,170.47,172.21,168.06,157.07,Open
458,6808.922506442369,1026.146236198692,5900.011169911763,23197.19918932905,0.0,0.0,0.0,0.0,169.94,170.47,172.21,168.06,157.07,Open
459,7069.58855028016,1009.8071110018624,6067.403384137558,22073.37582986067,0.0,0.0,0.0,0.0,169.94,170.47,172.21,168.06,157.07,Open
460,6561.578102299942,392.563687868558,5608.745587914656,21504.94861661776,0.0,0.0,0.0,0.0,169.94,170.47,172.21,168.06,157.07,Open
461,6082.893143045086,107.86951874131188,5233.392743276685,22327.962199206617,0.0,0.0,0.0,0.0,169.94,170.47,172.21,168.06,157.07,Open
462,6207.504118383422,478.8637732104985,5395.35348359984,23387.479589877083,0.0,0.0,0.0,0.0,169.94,170.47,172.21,168.06,157.07,Open
463,6772.176238557844,983.1191281222258,5878.486440001302,23169.795950626845,0.0,0.0,0.0,0.0,169.94,170.47,172.21,168.06,157.07,Open
464,7021.822872379169,975.3854245406897,6040.693049513466,22025.051358348293,0.0,0.0,0.0,0.0,169.94,170.47,172.21,168.06,157.07,Open
465,6520.316782035445,380.1137662069519,5578.77189860009,21459.216947462195,0.0,0.0,0.0,0.0,169.94,170.47,172.21,168.06,157.07,Open
466,6063.089497457683,99.30880061492928,5217.679466924604,22293.31699530089,0.0,0.0,0.0,0.0,169.94,170.47,172.21,168.06,157.07,Open
467,6215.438987665056,496.4992995857358,5397.20867838963,23370.179339668677,0.0,0.0,0.0,0.0,169.94,170.47,172.21,168.06,157.07,Open
468,6813.996352433724,1034.7740095584404,5911.187042139416,23215.5276197824,0.0,0.0,0.0,0.0,169.94,170.47,172.21,168.06,157.07,Open
469,7091.962646479923,1039.9372625276164,6095.857154829163,22094.855856282215,0.0,0.0,0.0,0.0,169.94,170.47,172.21,168.06,157.07,Open
470,6582.566390343474,412.2108712447729,5622.000172376654,21512.54820973256,0.0,0.0,0.0,0.0,169.94,170.47,172.21,168.06,157.07,Open
471,6087.318788447236,99.21939363710806,5228.765932174437,22310.4160798092,0.0,0.0,0.0,0.0,169.94,170.47,172.21,168.06,157.07,Open
472,6192.595504831732,464.5139532701914,5369.514867009505,23367.608889056315,0.0,0.0,0.0,0.0,169.94,170.47,172.21,168.06,157.07,Open
473,6770.991596101713,995.501994550466,5872.429117253914,23172.34404949475,0.0,0.0,0.0,0.0,169.94,170.47,172.21,168.06,157.07,Open
474,7050.947195404434,1002.9898289429938,6066.285796914792,22060.702390754508,0.0,0.0,0.0,0.0,169.94,170.47,172.21,168.06,157.07,Open
475,6571.435221604732,406.980563042231,5618.647410708358,21491.82814262249,0.0,0.0,0.0,0.0,169.94,170.47,172.21,168.06,157.07,Open
476,6109.5587741802665,135.18335046569712,5257.443220310595,22306.951559418627,0.0,0.0,0.0,0.0,169.94,170.47,172.21,168.06,157.07,Open
477,6229.453531438534,501.5954973215458,5408.183384917186,23393.31339517992,0.0,0.0,0.0,0.0,169.94,170.47,172.21,168.06,157.07,Open
478,6800.272381338165,1024.5592623423652,5883.180306336917,23200.641357975168,0.0,0.0,0.0,0.0,169.94,170.47,172.21,168.06,157.07,Open
479,7076.092907916654,1027.241471677002,6074.354776663158,22085.445771866533,0.0,0.0,0.0,0.0,169.94,170.47,172.21,168.06,157.07,Open
480,6569.200047159201,402.398455428893,5612.098349582952,21489.101229798944,0.0,0.0,0.0,0.0,169.94,170.47,172.21,168.06,157.07,Open
481,6088.816355325742,102.59450704985942,5228.207138563053,22295.55216974642,0.0,0.0,0.0,0.0,169.78,170.08,171.8,168.04,157.38,Open
482,6192.059062964805,460.5129910126914,5368.44198327565,23358.15410115172,0.0,0.0,0.0,0.0,169.78,170.08,171.8,168.04,157.38,Open
483,6752.0149650591575,979.05111063136,5849.183303020394,23170.690020405054,0.0,0.0,0.0,0.0,169.78,170.08,171.8,168.04,157.38,Open
484,7004.679084381948,965.2153808135248,6009.557069487223,22029.901686895097,0.0,0.0,0.0,0.0,169.78,170.08,171.8,168.04,157.38,Open
485,6533.616069986352,368.2449899011839,5582.862267835411,21434.63002856136,0.0,0.0,0.0,0.0,169.78,170.08,171.8,168.04,157.38,Open
486,6080.590913366189,90.61397202181485,5230.062333352845,22252.25684073649,0.0,0.0,0.0,0.0,169.78,170.08,171.8,168.04,157.38,Open
487,6187.476955351467,477.76853773218846,5377.740308969058,23327.28634205894,0.0,0.0,0.0,0.0,169.78,170.08,171.8,168.04,157.38,Open
488,6785.162602086378,1034.8634165362616,5896.323132076637,23205.53639001088,0.0,0.0,0.0,0.0,169.78,170.08,171.8,168.04,157.38,Open
489,7058.926768174979,1034.1258089692365,6071.20318069496,22081.80243752032,0.0,0.0,0.0,0.0,169.78,170.08,171.8,168.04,157.38,Open
490,6572.753974527594,414.15547301238456,5617.038085107575,21469.00701153362,0.0,0.0,0.0,0.0,169.78,170.08,171.8,168.04,157.38,Open
491,6107.748282879386,106.43900709617223,5254.47043829804,22284.868035896783,0.0,0.0,0.0,0.0,169.78,170.08,171.8,168.04,157.38,Open
492,6221.5186621569,477.6791307543672,5400.852012735845,23378.494188606048,0.0,0.0,0.0,0.0,169.78,170.08,171.8,168.04,157.38,Open
493,6787.934218398836,1021.1617971851584,5878.35232953457,23204.32939581029,0.0,0.0,0.0,0.0,169.78,170.08,171.8,168.04,157.38,Open
494,7063.441820554951,1026.0344774764153,6071.4043463950575,22093.335937659256,0.0,0.0,0.0,0.0,169.78,170.08,171.8,168.04,157.38,Open
495,6575.056204206491,409.05927527657457,5636.506454528148,21471.82333133499,0.0,0.0,0.0,0.0,169.78,170.08,171.8,168.04,157.38,Open
496,6108.508242190867,112.25046065455209,5251.8552841967685,22272.485169468546,0.0,0.0,0.0,0.0,169.78,170.08,171.8,168.04,157.38,Open
497,6216.936554543562,472.1582498739064,5369.380756542773,23380.1705694402,0.0,0.0,0.0,0.0,169.71,170.24,171.72,167.79,157.23,Open
498,6776.512476982174,1009.7177040240412,5857.185227535395,23199.7249364525,0.0,0.0,0.0,0.0,169.71,170.24,171.72,167.79,157.23,Open
499,7048.488503514351,1026.302698409879,6051.868921741119,22071.967669959984,0.0,0.0,0.0,0.0,169.71,170.24,171.72,167.79,157.23,Open
500,6559.72290751015,401.2585164616724,5604.118776812408,21461.228604463173,0.0,0.0,0.0,0.0,169.71,170.24,171.72,167.79,157.23,Open
501,6080.34504417718,84.4895940410607,5223.781493160903,22252.458006436587,0.0,0.0,0.0,0.0,169.71,170.24,171.72,167.79,157.23,Open
502,6174.892923223129,437.6024529460017,5359.009547115511,23328.42628102616,0.0,0.0,0.0,0.0,169.71,170.24,171.72,167.79,157.23,Open
503,6761.782677386127,1003.5486225543764,5883.850858670576,23188.616119458213,0.0,0.0,0.0,0.0,169.71,170.24,171.72,167.79,157.23,Open
504,7054.277605328275,1035.4445618920995,6082.446108155979,22084.484646854955,0.0,0.0,0.0,0.0,169.71,170.24,171.72,167.79,157.23,Open
505,6572.06107044948,420.7045341377896,5627.632811979391,21474.95257555873,0.0,0.0,0.0,0.0,169.71,170.24,171.72,167.79,157.23,Open
506,6063.335366646692,92.26800111150756,5256.929130188123,22220.45030837659,0.0,0.0,0.0,0.0,169.71,170.24,171.72,167.79,157.23,Open
507,6157.592673014721,413.1272927674405,5343.206863785608,23309.315539516872,0.0,0.0,0.0,0.0,169.71,170.24,171.72,167.79,157.23,Open
508,6761.447401219297,988.7517677249632,5829.781988833188,23200.3284335528,0.0,0.0,0.0,0.0,169.71,170.24,171.72,167.79,157.23,Open
509,7058.435029796962,1067.3181494853677,6066.643424826077,22094.09589697074,0.0,0.0,0.0,0.0,169.71,170.24,171.72,167.79,157.23,Open
510,6604.135823742846,455.81912467707696,5647.481161055704,21486.597834419947,0.0,0.0,0.0,0.0,169.71,170.24,171.72,167.79,157.23,Open
511,6155.133981124638,134.08811498738706,5281.896028744702,22290.075992354872,0.0,0.0,0.0,0.0,169.71,170.24,171.72,167.79,157.23,Open
512,6219.4399499225565,457.0484706221188,5389.989064930566,23348.162871380195,0.0,0.0,0.0,0.0,169.71,170.24,171.72,167.79,157.23,Open
513,6768.890532122914,989.3329130808012,5870.976253864319,23201.55777949784,0.0,0.0,0.0,0.0,169.97,170.07,171.6,167.66,157.01,Open
514,7072.650739270537,1034.304622924879,6088.414023925546,22122.70612987353,0.0,0.0,0.0,0.0,169.97,170.07,171.6,167.66,157.01,Open
515,6606.505108655108,435.0543540780967,5650.185722134796,21498.913645614823,0.0,0.0,0.0,0.0,169.97,170.07,171.6,167.66,157.01,Open
516,6116.264297516858,114.08330369988724,5250.201255107076,22249.01583779047,0.0,0.0,0.0,0.0,169.97,170.07,171.6,167.66,157.01,Open
517,6182.134888426649,441.98339485924186,5353.220445301587,23316.535152975932,0.0,0.0,0.0,0.0,169.97,170.07,171.6,167.66,157.01,Open
518,6743.789523099605,986.7177589795302,5838.029782537196,23186.872683390706,0.0,0.0,0.0,0.0,169.97,170.07,171.6,167.66,157.01,Open
519,7047.750895947325,1030.6165850897532,6062.016613723828,22092.95595800352,0.0,0.0,0.0,0.0,169.97,170.07,171.6,167.66,157.01,Open
520,6598.614942862385,438.9435576133201,5650.878626212911,21480.473456439195,0.0,0.0,0.0,0.0,169.97,170.07,171.6,167.66,157.01,Open
521,6108.463538701956,112.07164669890962,5247.116714372243,22229.323950925347,0.0,0.0,0.0,0.0,169.97,170.07,171.6,167.66,157.01,Open
522,6197.825813034274,458.9707206452752,5371.280654821474,23329.14153684873,0.0,0.0,0.0,0.0,169.97,170.07,171.6,167.66,157.01,Open
523,6774.500819981196,1010.0306284464156,5872.339710276093,23222.210791374546,0.0,0.0,0.0,0.0,169.97,170.07,171.6,167.66,157.01,Open
524,7049.092000614643,1030.683640323119,6077.685186586999,22096.889865027653,0.0,0.0,0.0,0.0,169.97,170.07,171.6,167.66,157.01,Open
525,6586.008558989592,432.8638831214766,5639.59099526298,21461.519177141094,0.0,0.0,0.0,0.0,169.97,170.07,171.6,167.66,157.01,Open
526,6111.011637569862,113.01041996603252,5250.603586507272,22228.58634335832,0.0,0.0,0.0,0.0,169.97,170.07,171.6,167.66,157.01,Open
527,6158.822018959763,409.7745310991444,5329.281726989952,23292.46232419757,0.0,0.0,0.0,0.0,169.97,170.07,171.6,167.66,157.01,Open
528,6701.142394678878,922.344734948246,5809.620715334501,23174.422761729093,0.0,0.0,0.0,0.0,169.97,170.07,171.6,167.66,157.01,Open
529,7005.841375093624,1006.566108055843,6029.695991241454,22075.18632116155,0.0,0.0,0.0,0.0,169.97,170.07,171.6,167.66,157.01,Open
530,6606.348646443921,484.0717296685851,5656.332451860006,21485.50259894164,0.0,0.0,0.0,0.0,169.97,170.07,171.6,167.66,157.01,Open
531,6144.829826930742,153.98116755261034,5286.254618913486,22257.12952102775,0.0,0.0,0.0,0.0,169.97,170.07,171.6,167.66,157.01,Open
532,6197.959923501006,444.978528616253,5363.412840773206,23312.51183897398,0.0,0.0,0.0,0.0,169.97,170.07,171.6,167.66,157.01,Open
533,6767.840000133515,992.4621573045442,5853.541893189179,23232.26907637943,0.0,0.0,0.0,0.0,169.97,170.07,171.6,167.66,157.01,Open
534,7057.362146063108,1023.4416751195998,6077.796945309276,22137.59239168077,0.0,0.0,0.0,0.0,169.97,170.07,171.6,167.66,157.01,Open
535,6575.6820530512405,424.0349440616303,5670.436402611304,21455.841834049446,0.0,0.0,0.0,0.0,169.97,170.07,171.6,167.66,157.01,Open
536,6113.224460270937,117.63723106828108,5277.403328109184,22225.5465061124,0.0,0.0,0.0,0.0,169.97,170.07,171.6,167.66,157.01,Open
537,6202.452624136523,460.20006659031714,5356.304986036419,23325.453499013605,0.0,0.0,0.0,0.0,169.97,170.07,171.6,167.66,157.01,Open
538,6785.095546853012,1035.6233758477422,5882.3979952809805,23254.53141385692,0.0,0.0,0.0,0.0,169.97,170.07,171.6,167.66,157.01,Open
539,7082.977245208889,1065.1276785287475,6100.863945587153,22162.91691814863,0.0,0.0,0.0,0.0,169.99,170.11,171.72,167.88,157.27,Open
540,6620.251431495122,448.55480772910215,5655.1701611483295,21492.565750189515,0.0,0.0,0.0,0.0,169.99,170.11,171.72,167.88,157.27,Open
541,6135.464446003967,122.68872531518046,5256.951481932579,22240.119843497258,0.0,0.0,0.0,0.0,169.99,170.11,171.72,167.88,157.27,Open
542,6175.027033689861,436.7530866567,5342.938642852145,23317.988016365533,0.0,0.0,0.0,0.0,169.99,170.11,171.72,167.88,157.27,Open
543,6725.505796135163,968.4340320150892,5818.516709627714,23211.97369241401,0.0,0.0,0.0,0.0,169.99,170.11,171.72,167.88,157.27,Open
544,7019.073607811166,996.7536922399632,6026.276174339792,22090.765487046898,0.0,0.0,0.0,0.0,169.99,170.11,171.72,167.88,157.27,Open
545,6553.307956851478,381.6113330854575,5593.054663307031,21400.43185954474,0.0,0.0,0.0,0.0,169.99,170.11,171.72,167.88,157.27,Open
546,6081.753204077864,79.54985851643784,5222.820368149325,22160.83820591429,0.0,0.0,0.0,0.0,169.99,170.11,171.72,167.88,157.27,Open
547,6157.816190459274,473.2087818633058,5348.012488843499,23286.807332850374,0.0,0.0,0.0,0.0,169.99,170.11,171.72,167.88,157.27,Open
548,6783.530924741141,1063.6524633946972,5893.797384953187,23272.345754187794,0.0,0.0,0.0,0.0,169.99,170.11,171.72,167.88,157.27,Open
549,7127.837196330691,1092.7320829310518,6132.73753318042,22206.52517158093,0.0,0.0,0.0,0.0,169.99,170.11,171.72,167.88,157.27,Open
550,6633.349553745932,456.17675258836186,5635.232405094195,21486.553130931035,0.0,0.0,0.0,0.0,169.99,170.11,171.72,167.88,157.27,Open
551,6135.866777404163,119.49242585807156,5228.765932174437,22241.21507897557,0.0,0.0,0.0,0.0,169.99,170.11,171.72,167.88,157.27,Open
552,6156.363327069679,415.6530398908901,5306.594706367816,23302.386498735726,0.0,0.0,0.0,0.0,169.99,170.11,171.72,167.88,157.27,Open
553,6729.909089792859,979.1405176091812,5811.5429653576575,23227.128175154707,0.0,0.0,0.0,0.0,169.99,170.11,171.72,167.88,157.27,Open
554,7049.3825732925625,1034.1258089692365,6056.562788076733,22144.834356884287,0.0,0.0,0.0,0.0,169.99,170.11,171.72,167.88,157.27,Open
555,6607.041550522036,442.89981638190943,5647.8834924559,21467.48709291066,0.0,0.0,0.0,0.0,170.01,170.04,171.62,167.69,157.04,Open
556,6126.724913921942,121.68289681469165,5247.764914961447,22214.124764695734,0.0,0.0,0.0,0.0,170.01,170.04,171.62,167.69,157.04,Open
557,6162.867684706174,431.29926100960506,5325.10195077681,23295.23394051003,0.0,0.0,0.0,0.0,170.01,170.04,171.62,167.69,157.04,Open
558,6757.133514539423,1014.1209976817368,5849.853855354054,23258.30885866986,0.0,0.0,0.0,0.0,170.01,170.04,171.62,167.69,157.04,Open
559,7090.800355768247,1082.852611881806,6104.797852611287,22179.680726490107,0.0,0.0,0.0,0.0,170.01,170.04,171.62,167.69,157.04,Open
560,6620.720818128684,458.9707206452752,5650.49864655717,21466.235395221163,0.0,0.0,0.0,0.0,170.01,170.04,171.62,167.69,157.04,Open
561,6115.951373094485,106.84133849636775,5229.525891485917,22182.519398035933,0.0,0.0,0.0,0.0,170.01,170.04,171.62,167.69,157.04,Open
562,6148.830789188241,402.689028106812,5319.1787384961535,23267.383666918715,0.0,0.0,0.0,0.0,170.01,170.04,171.62,167.69,157.04,Open
563,6757.357031983976,981.8450786882734,5865.611835195045,23262.868614538744,0.0,0.0,0.0,0.0,170.01,170.04,171.62,167.69,157.04,Open
564,7046.25332906882,1026.6156228322534,6066.464610870435,22134.61960966821,0.0,0.0,0.0,0.0,170.01,170.04,171.62,167.69,157.04,Open
565,6580.331215897944,463.1504968584176,5622.49191075467,21419.162621398285,0.0,0.0,0.0,0.0,170.01,170.04,171.62,167.69,157.04,Open
566,6103.836727599708,151.9695105516327,5241.953461403067,22170.09182811878,0.0,0.0,0.0,0.0,170.01,170.04,171.62,167.69,157.04,Open
567,6166.712184752487,428.3935342304152,5338.6694596611815,23303.884065614235,0.0,0.0,0.0,0.0,170.01,170.04,171.62,167.69,157.04,Open
568,6762.252064019688,979.9898838984828,5853.787762378188,23273.46334141056,0.0,0.0,0.0,0.0,170.01,170.04,171.62,167.69,157.04,Open
569,7070.527323547283,1048.8332568208286,6084.211895967948,22173.846921187276,0.0,0.0,0.0,0.0,170.01,170.04,171.62,167.69,157.04,Open
570,6610.036684279047,448.51010424019154,5662.613292051947,21462.167377730297,0.0,0.0,0.0,0.0,170.01,170.04,171.62,167.69,157.04,Open
571,6124.73560866542,115.46911185611629,5281.09136594431,22179.81483695684,0.0,0.0,0.0,0.0,170.01,170.04,171.62,167.69,157.04,Open
572,6153.994042157417,415.40717070188174,5345.039706830944,23272.166940232157,0.0,0.0,0.0,0.0,170.19,169.97,171.67,167.86,157.2,Open
573,6729.0597235035575,994.7643869834408,5831.413666178425,23267.11544598525,0.0,0.0,0.0,0.0,170.19,169.97,171.67,167.86,157.2,Open
574,7081.770251008303,1096.241306810535,6096.527707162823,22205.564046569358,0.0,0.0,0.0,0.0,170.19,169.97,171.67,167.86,157.2,Open
575,6662.69739421575,504.81414852311,5701.617086126457,21519.8795819139,0.0,0.0,0.0,0.0,170.19,169.97,171.67,167.86,157.2,Open
576,6153.6364142461325,129.28248992949605,5292.848383527802,22200.37844185572,0.0,0.0,0.0,0.0,170.19,169.97,171.67,167.86,157.2,Open
577,6156.698603236509,402.17493798434,5357.377869770274,23282.202873492584,0.0,0.0,0.0,0.0,170.19,169.97,171.67,167.86,157.2,Open
578,6705.165708680834,963.7848691683852,5863.846047383076,23236.89588748168,0.0,0.0,0.0,0.0,170.19,169.97,171.67,167.86,157.2,Open
579,7053.182369849965,1047.2239312200466,6084.815393068242,22182.22882535801,0.0,0.0,0.0,0.0,170.19,169.97,171.67,167.86,157.2,Open
580,6635.964707847204,452.0863833530407,5659.037012939098,21472.7174011132,0.0,0.0,0.0,0.0,170.19,169.97,171.67,167.86,157.2,Open
581,6120.309963263269,113.2786408994962,5262.785287235414,22143.38149349469,0.0,0.0,0.0,0.0,170.19,169.97,171.67,167.86,157.2,Open
582,6128.602460456188,416.52475792464713,5319.022276284966,23238.259343893453,0.0,0.0,0.0,0.0,170.19,169.97,171.67,167.86,157.2,Open
583,6707.1103104484455,960.5438662223658,5822.092988740563,23244.67429455213,0.0,0.0,0.0,0.0,170.19,169.97,171.67,167.86,157.2,Open
584,7048.689669214448,1037.5232741264433,6079.20510520996,22179.233691601003,0.0,0.0,0.0,0.0,170.19,169.97,171.67,167.86,157.2,Open
585,6628.74509438814,481.0989476560292,5693.436347655815,21455.79713056053,0.0,0.0,0.0,0.0,170.19,169.97,171.67,167.86,157.2,Open
586,6156.072754391761,136.94913827766638,5311.735607592536,22160.43587451409,0.0,0.0,0.0,0.0,170.19,169.97,171.67,167.86,157.2,Open
587,6171.897789466118,420.2351475042281,5369.268997820496,23262.332172671817,0.0,0.0,0.0,0.0,170.19,169.97,171.67,167.86,157.2,Open
588,6735.206453228767,1007.0578464338596,5853.720707144822,23268.769475074947,0.0,0.0,0.0,0.0,170.13,170.13,171.58,167.69,157.17,Open
589,7084.430108598484,1089.424024751666,6100.908649076063,22227.982846258023,0.0,0.0,0.0,0.0,170.13,170.13,171.58,167.69,157.17,Open
590,6647.498207986142,470.2136481062946,5678.371271892938,21483.736811129667,0.0,0.0,0.0,0.0,170.13,170.13,171.58,167.69,157.17,Open
591,6146.349745553702,117.994858979566,5282.700691545092,22161.508758247943,0.0,0.0,0.0,0.0,170.13,170.13,171.58,167.69,157.17,Open
592,6158.643205004121,403.47133916274777,5344.9502998531225,23274.98326003352,0.0,0.0,0.0,0.0,170.13,170.13,171.58,167.69,157.17,Open
593,6719.537880365597,967.3387965367792,5832.240680723272,23280.347678702798,0.0,0.0,0.0,0.0,170.13,170.13,171.58,167.69,157.17,Open
594,7038.139645831543,1054.912931312672,6068.431564382501,22176.90911017765,0.0,0.0,0.0,0.0,170.13,170.13,171.58,167.69,157.17,Open
595,6608.807338334005,448.107772839996,5669.3188153885385,21426.069310434978,0.0,0.0,0.0,0.0,170.13,170.13,171.58,167.69,157.17,Open
596,6119.371189996146,106.6848762851806,5278.85619149878,22117.56522864881,0.0,0.0,0.0,0.0,170.13,170.13,171.58,167.69,157.17,Open
597,6152.78704795683,415.8765573354432,5360.283596549463,23265.237899451007,0.0,0.0,0.0,0.0,170.13,170.13,171.58,167.69,157.17,Open
598,6742.537825410107,994.786738727896,5849.675041398411,23288.37195496225,0.0,0.0,0.0,0.0,170.13,170.13,171.58,167.69,157.17,Open
599,7095.471870359406,1092.1062340863032,6110.609306169666,22223.55720085588,0.0,0.0,0.0,0.0,170.13,170.13,171.58,167.69,157.17,Open
600,6653.086144099969,488.11739541499566,5698.398434924893,21469.409342933817,0.0,0.0,0.0,0.0,170.13,170.13,171.58,167.69,157.17,Open
601,6147.243815331914,118.3748386353062,5289.115642203766,22151.85280464325,0.0,0.0,0.0,0.0,170.13,170.13,171.58,167.69,157.17,Open
602,6138.861911161174,385.2546674316725,5332.500378191517,23245.769530030437,0.0,0.0,0.0,0.0,170.13,170.13,171.58,167.69,157.17,Open
603,6700.963580723236,962.0414331008712,5825.959840531331,23267.74129483,0.0,0.0,0.0,0.0,170.13,170.13,171.58,167.69,157.17,Open
604,7058.032698396766,1071.6767396541525,6099.25461998637,22203.12770642373,0.0,0.0,0.0,0.0,170.13,170.13,171.58,167.69,157.17,Open
605,6663.636167482873,508.2786689136826,5715.586926411024,21463.44142716425,0.0,0.0,0.0,0.0,170.13,170.13,171.58,167.69,157.17,Open
606,6181.732557026453,155.0316995420098,5322.755017609003,22159.8323774138,0.0,0.0,0.0,0.0,170.13,170.13,171.58,167.69,157.17,Open
607,6159.336109082235,402.3314001955271,5360.417707016195,23254.620820834734,0.0,0.0,0.0,0.0,170.13,170.13,171.58,167.69,157.17,Open
608,6727.271583947133,975.631293729698,5862.817867138132,23298.40788822268,0.0,0.0,0.0,0.0,170.13,170.13,171.58,167.69,157.17,Open
609,7047.259157569309,1059.0033005479934,6098.271143230337,22190.700136506573,0.0,0.0,0.0,0.0,170.13,170.13,171.58,167.69,157.17,Open
610,6642.022030594591,478.10381389901806,5706.646228628902,21451.95263051422,0.0,0.0,0.0,0.0,170.13,170.13,171.58,167.69,157.17,Open
611,6140.001850128395,139.63134761230322,5289.294456159408,22133.27850500089,0.0,0.0,0.0,0.0,170.13,170.13,171.58,167.69,157.17,Open
612,6110.16227128056,383.19830694178427,5299.240982442019,23216.30993083834,0.0,0.0,0.0,0.0,170.13,170.13,171.58,167.69,157.17,Open
613,6658.919949402804,910.9006417871288,5776.562485285102,23213.605369759247,0.0,0.0,0.0,0.0,169.76,170.07,171.59,167.6,156.95,Open
614,7018.7383316443365,1009.1365586682032,6048.426753095002,22178.11610437824,0.0,0.0,0.0,0.0,169.76,170.07,171.59,167.6,156.95,Open
615,6659.121115102901,502.266049655205,5720.996048569209,21455.50655788261,0.0,0.0,0.0,0.0,169.76,170.07,171.59,167.6,156.95,Open
616,6191.410862375601,181.3173510214509,5348.034840587955,22150.48934823148,0.0,0.0,0.0,0.0,169.76,170.07,171.59,167.6,156.95,Open
617,6180.279693636858,433.8250081330548,5377.919122924701,23268.076570996836,0.0,0.0,0.0,0.0,169.76,170.07,171.59,167.6,156.95,Open
618,6756.95470058378,1000.9781719420162,5876.54183823369,23330.57204849387,0.0,0.0,0.0,0.0,169.76,170.07,171.59,167.6,156.95,Open
619,7090.398024368051,1070.290931497923,6118.521823706845,22255.40843670469,0.0,0.0,0.0,0.0,169.76,170.07,171.59,167.6,156.95,Open
620,6633.304850257022,460.1553631014065,5692.497574388693,21425.1081854234,0.0,0.0,0.0,0.0,169.76,170.07,171.59,167.6,156.95,Open
621,6100.394558953591,91.01630342201037,5260.416002323152,22063.02697217786,0.0,0.0,0.0,0.0,169.76,170.07,171.59,167.6,156.95,Open
622,6086.536477391301,355.079812417008,5292.960142250078,23183.45286648904,0.0,0.0,0.0,0.0,169.76,170.07,171.59,167.6,156.95,Open
623,6720.208432699255,982.33681706629,5846.970480319319,23299.525475445447,0.0,0.0,0.0,0.0,169.76,170.07,171.59,167.6,156.95,Open
624,7110.805167055746,1109.7194087170851,6145.299213564303,22267.21015777709,0.0,0.0,0.0,0.0,169.76,170.07,171.59,167.6,156.95,Open
625,6697.364949865932,519.6333550969786,5764.716060723789,21487.58131117598,0.0,0.0,0.0,0.0,169.76,170.07,171.59,167.6,156.95,Open
626,6169.953187698507,129.99774575206587,5336.322526493374,22133.658484656637,0.0,0.0,0.0,0.0,169.76,170.07,171.59,167.6,156.95,Open
627,6075.606474352655,346.40733556834886,5277.246865897998,23189.48783749197,0.0,0.0,0.0,0.0,169.76,170.07,171.59,167.6,156.95,Open
628,6652.192074321756,941.5225316908994,5789.302979624627,23252.69857081158,0.0,0.0,0.0,0.0,169.76,170.07,171.59,167.6,156.95,Open
629,7043.68287845646,1052.789515589418,6093.621980383633,22209.944988482595,0.0,0.0,0.0,0.0,170.06,170.27,171.87,167.68,156.86,Open
630,6656.1036296014345,503.5400990891575,5750.075668105563,21437.20047917372,0.0,0.0,0.0,0.0,170.06,170.27,171.87,167.68,156.86,Open
631,6176.74811801292,157.959778065655,5353.376907512773,22128.65169389864,0.0,0.0,0.0,0.0,170.06,170.27,171.87,167.68,156.86,Open
632,6172.769507499875,397.7269408377339,5339.742343395036,23256.386608646702,0.0,0.0,0.0,0.0,170.06,170.27,171.87,167.68,156.86,Open
633,6740.414409686853,980.5710292543208,5846.29992798566,23323.71006294609,0.0,0.0,0.0,0.0,170.06,170.27,171.87,167.68,156.86,Open
634,7087.313483633218,1074.135431544236,6116.286649261314,22257.64361115022,0.0,0.0,0.0,0.0,170.06,170.27,171.87,167.68,156.86,Open
635,6646.872359141393,467.2408660937388,5714.067007788063,21424.43763308974,0.0,0.0,0.0,0.0,170.06,170.27,171.87,167.68,156.86,Open
636,6108.709407890965,112.78690252147943,5286.500488102494,22047.425454548054,0.0,0.0,0.0,0.0,170.06,170.27,171.87,167.68,156.86,Open
637,6091.744433849387,388.0709872330412,5305.521822633961,23197.1768375846,0.0,0.0,0.0,0.0,170.06,170.27,171.87,167.68,156.86,Open
638,6720.186080954801,989.467023547533,5839.549701160157,23314.85877214179,0.0,0.0,0.0,0.0,170.06,170.27,171.87,167.68,156.86,Open
639,7113.576783368205,1105.5172807594872,6129.854158145686,22283.571634718377,0.0,0.0,0.0,0.0,170.06,170.27,171.87,167.68,156.86,Open
640,6680.467031057719,501.7966630216436,5715.542222922114,21451.59500260293,0.0,0.0,0.0,0.0,170.06,170.27,171.87,167.68,156.86,Open
641,6116.107835305672,83.79668996294618,5256.750316232481,22028.49352699441,0.0,0.0,0.0,0.0,170.06,170.27,171.87,167.68,156.86,Open
642,6066.419907381524,313.5726229635028,5276.196333908598,23144.87375555918,0.0,0.0,0.0,0.0,170.06,170.27,171.87,167.68,156.86,Open
643,6689.117156161923,951.5137614624216,5833.872358068509,23303.9511208476,0.0,0.0,0.0,0.0,170.06,170.27,171.87,167.68,156.86,Open
644,7099.361073894629,1118.4812925435654,6161.83950446123,22279.145989316225,0.0,0.0,0.0,0.0,170.06,170.27,171.87,167.68,156.86,Open
645,6708.13849069339,539.6605181289337,5774.863752706498,21482.75333437364,0.0,0.0,0.0,0.0,170.06,170.27,171.87,167.68,156.86,Open
646,6198.362254901202,158.67503388822485,5344.39150624174,22119.35336820524,0.0,0.0,0.0,0.0,170.0,170.25,171.81,167.8,157.38,Open
647,6146.1262281091485,382.50540286366976,5327.158311266699,23240.919201483637,0.0,0.0,0.0,0.0,170.0,170.25,171.81,167.8,157.38,Open
648,6710.597182583473,960.1191830777148,5827.949145787853,23314.210571552583,0.0,0.0,0.0,0.0,170.0,170.25,171.81,167.8,157.38,Open
649,7060.223169353387,1053.2141987340688,6091.811489082753,22245.126634255248,0.0,0.0,0.0,0.0,170.0,170.25,171.81,167.8,157.38,Open
650,6646.604138207929,473.94638943033095,5709.12727226344,21420.14609815432,0.0,0.0,0.0,0.0,170.0,170.25,171.81,167.8,157.38,Open
651,6131.7987599132975,142.49237090258254,5303.912497033179,22028.851154905697,0.0,0.0,0.0,0.0,170.0,170.25,171.81,167.8,157.38,Open
652,6084.927151790518,374.1234986929296,5298.1680987081645,23168.588956426254,0.0,0.0,0.0,0.0,170.0,170.25,171.81,167.8,157.38,Open
653,6703.556383080052,965.3271395358014,5831.927756300897,23316.065766342374,0.0,0.0,0.0,0.0,170.0,170.25,171.81,167.8,157.38,Open
654,7100.277495417296,1093.089710842337,6134.436265759024,22299.15080060373,0.0,0.0,0.0,0.0,170.0,170.25,171.81,167.8,157.38,Open
655,6685.160897393334,504.7247415452888,5739.7044586783,21452.37731365887,0.0,0.0,0.0,0.0,170.0,170.25,171.81,167.8,157.38,Open
656,6109.82699511373,72.86668692430102,5278.207990909576,22013.383747742624,0.0,0.0,0.0,0.0,170.0,170.25,171.81,167.8,157.38,Open
657,6035.440389566468,289.8350703519667,5305.007732511489,23134.368435665183,0.0,0.0,0.0,0.0,170.0,170.25,171.81,167.8,157.38,Open
658,6658.629376724884,929.8996245741396,5852.513712944236,23280.50414091398,0.0,0.0,0.0,0.0,170.0,170.25,171.81,167.8,157.38,Open
659,7097.729396549392,1113.2286325965683,6129.988268612417,22290.36656503279,0.0,0.0,0.0,0.0,170.0,170.25,171.81,167.8,157.38,Open
660,6718.643810587384,566.9967015977743,5770.683976493357,21472.33742145746,0.0,0.0,0.0,0.0,170.0,170.25,171.81,167.8,157.38,Open
661,6211.058045751816,172.443708472694,5352.594596456837,22092.330109158767,0.0,0.0,0.0,0.0,170.0,170.25,171.81,167.8,157.38,Open
662,6152.854103190196,369.2061149127621,5342.20103528512,23231.196192645573,0.0,0.0,0.0,0.0,170.0,170.25,171.81,167.8,157.38,Open
663,6696.783804510093,943.2883195028686,5831.05603826714,23332.29313281693,0.0,0.0,0.0,0.0,170.0,170.25,171.81,167.8,157.38,Open
664,7058.926768174979,1088.6864171846412,6111.168099781049,22258.291811739426,0.0,0.0,0.0,0.0,170.0,170.25,171.81,167.8,157.38,Open
665,6655.634242967873,504.5012241007357,5718.604411912491,21397.50378102109,0.0,0.0,0.0,0.0,170.0,170.25,171.81,167.8,157.38,Open
666,6145.299213564303,108.42831235269456,5299.732720820037,22003.19135227101,0.0,0.0,0.0,0.0,170.0,170.25,171.81,167.8,157.38,Open
667,6105.870736345141,345.9603006792427,5321.391561197229,23172.88049136168,0.0,0.0,0.0,0.0,170.0,170.25,171.81,167.8,157.38,Open
668,6693.073414930513,961.5273429783992,5840.48847442728,23309.762574405977,0.0,0.0,0.0,0.0,170.0,170.25,171.81,167.8,157.38,Open
669,7077.076384672688,1096.4871759995433,6124.355629009679,22280.17416956117,0.0,0.0,0.0,0.0,170.0,170.25,171.81,167.8,157.38,Open
670,6699.398958611365,529.3116604461266,5753.540188496136,21433.735958783145,0.0,0.0,0.0,0.0,169.94,170.06,171.93,168.39,157.83,Open
671,6163.404126573101,120.5653095919263,5323.5820321538495,22009.44984071849,0.0,0.0,0.0,0.0,169.94,170.06,171.93,168.39,157.83,Open
672,6071.5831603507,298.7757681340895,5308.405197668695,23138.43645315605,0.0,0.0,0.0,0.0,169.94,170.06,171.93,168.39,157.83,Open
673,6629.147425788335,886.7831095198524,5813.554622358635,23265.93080352912,0.0,0.0,0.0,0.0,169.94,170.06,171.93,168.39,157.83,Open
674,7036.463264997396,1070.6262076647529,6104.999018311384,22253.374427959257,0.0,0.0,0.0,0.0,169.94,170.06,171.93,168.39,157.83,Open
675,6688.647769528362,556.5360851926905,5747.0358308596415,21431.679598293256,0.0,0.0,0.0,0.0,169.94,170.06,171.93,168.39,157.83,Open
676,6212.6897230970535,181.1608888102637,5366.050346618932,22068.79372224733,0.0,0.0,0.0,0.0,169.94,170.06,171.93,168.39,157.83,Open
677,6162.9123881950845,380.1137662069519,5370.1854193431645,23226.122346654214,0.0,0.0,0.0,0.0,169.94,170.06,171.93,168.39,157.83,Open
678,6727.428046158319,971.1385930941811,5867.511733473746,23367.98886871205,0.0,0.0,0.0,0.0,169.94,170.06,171.93,168.39,157.83,Open
679,7100.188088439476,1104.5785074923645,6150.909501422585,22317.21101012361,0.0,0.0,0.0,0.0,169.94,170.06,171.93,168.39,157.83,Open
680,6685.831449726993,509.68682881436695,5758.435220531848,21406.913865436774,0.0,0.0,0.0,0.0,169.94,170.06,171.93,168.39,157.83,Open
681,6128.870681389652,109.05416119744316,5297.005807996489,21968.12146522063,0.0,0.0,0.0,0.0,169.94,170.06,171.93,168.39,157.83,Open
682,6068.67743357151,326.76015219213394,5298.235153941531,23128.66874082908,0.0,0.0,0.0,0.0,169.94,170.06,171.93,168.39,157.83,Open
683,6674.208542610234,931.1513222636368,5829.15613998844,23326.816955425376,0.0,0.0,0.0,0.0,169.94,170.06,171.93,168.39,157.83,Open
684,7056.937462918457,1077.0858618123368,6115.459634716468,22282.878730640263,0.0,0.0,0.0,0.0,169.94,170.06,171.93,168.39,157.83,Open
685,6673.694452487762,522.5837853650792,5779.848191720032,21409.260798604584,0.0,0.0,0.0,0.0,169.94,170.06,171.93,168.39,157.83,Open
686,6155.648071247109,127.36023990633964,5389.9220096972,21997.91634057955,0.0,0.0,0.0,0.0,169.94,170.06,171.93,168.39,157.83,Open
687,6086.670587858032,317.7300474321899,5315.4236454276615,23136.38009266616,0.0,0.0,0.0,0.0,169.94,170.06,171.93,168.39,157.83,Open
688,6682.769260736616,944.2717962589022,5810.313619412616,23320.826687911354,0.0,0.0,0.0,0.0,169.86,170.39,172.27,168.24,157.6,Open
689,7085.748861521347,1102.5444987469314,6133.0951610917045,22311.645425754243,0.0,0.0,0.0,0.0,169.86,170.39,172.27,168.24,157.6,Open
690,6696.493231832174,515.8335585395764,5760.469229277281,21426.38223485735,0.0,0.0,0.0,0.0,169.86,170.39,172.27,168.24,157.6,Open
691,6146.640318231621,110.4846728425828,5307.712293590581,21975.586947868705,0.0,0.0,0.0,0.0,169.86,170.39,172.27,168.24,157.6,Open
692,6076.992282508884,331.4316667832931,5296.37995915174,23122.29849365932,0.0,0.0,0.0,0.0,169.86,170.39,172.27,168.24,157.6,Open
693,6698.929571977803,959.8509621442512,5848.848026853565,23338.305752075405,0.0,0.0,0.0,0.0,169.86,170.39,172.27,168.24,157.6,Open
694,7105.016065241822,1122.9963449235374,6158.866722448674,22313.09828914384,0.0,0.0,0.0,0.0,169.86,170.39,172.27,168.24,157.6,Open
695,6710.351313394465,544.7567158647437,5790.62173254749,21404.32106307996,0.0,0.0,0.0,0.0,169.86,170.39,172.27,168.24,157.6,Open
696,6158.822018959763,120.05121946945424,5339.898805606224,22003.30311099328,0.0,0.0,0.0,0.0,169.86,170.39,172.27,168.24,157.6,Open
697,6071.091421972683,334.00211739565344,5303.443110399618,23139.35287467872,0.0,0.0,0.0,0.0,169.86,170.39,172.27,168.24,157.6,Open
698,6670.051118141547,946.9763573379944,5824.149349230451,23333.76834795098,0.0,0.0,0.0,0.0,169.86,170.39,172.27,168.24,157.6,Open
699,7082.1949341529535,1091.368626519278,6127.440169744512,22329.258600385023,0.0,0.0,0.0,0.0,169.86,170.39,172.27,168.24,157.6,Open
700,6718.017961742636,543.4603146863359,5780.786964987155,21445.180051944262,0.0,0.0,0.0,0.0,169.86,170.39,172.27,168.24,157.6,Open
701,6198.295199667836,146.2698157155294,5359.009547115511,22010.723890152443,0.0,0.0,0.0,0.0,169.86,170.39,172.27,168.24,157.6,Open
702,6072.097250473172,293.567811676003,5303.733683077537,23113.469554599476,0.0,0.0,0.0,0.0,169.86,170.39,172.27,168.24,157.6,Open
703,6611.221326735178,877.2612663818916,5778.95412194182,23262.91331802765,0.0,0.0,0.0,0.0,169.84,170.34,172.4,168.47,157.85,Open
704,7027.097884070621,1060.6126261487757,6089.688073359499,22265.712590898587,0.0,0.0,0.0,0.0,169.84,170.34,172.4,168.47,157.85,Open
705,6685.831449726993,540.1746082514057,5793.952142471331,21414.71462425168,0.0,0.0,0.0,0.0,169.84,170.34,172.4,168.47,157.85,Open
706,6178.044519191328,157.669205387736,5392.470108565105,21988.05922127476,0.0,0.0,0.0,0.0,169.84,170.34,172.4,168.47,157.85,Open
707,6113.671495160043,339.9923849096757,5325.616040899282,23140.313999690297,0.0,0.0,0.0,0.0,169.84,170.34,172.4,168.47,157.85,Open
708,6692.246400385667,944.763534636919,5820.215442206317,23340.876202687767,0.0,0.0,0.0,0.0,169.84,170.34,172.4,168.47,157.85,Open
709,7093.147288936054,1103.9973621365264,6138.459579760979,22320.496716558544,0.0,0.0,0.0,0.0,169.84,170.34,172.4,168.47,157.85,Open
710,6710.083092461002,537.134771005484,5789.392386602448,21421.844830732924,0.0,0.0,0.0,0.0,169.84,170.34,172.4,168.47,157.85,Open
711,6141.097085606705,109.1435681752644,5311.176813981154,21946.753197521357,0.0,0.0,0.0,0.0,169.84,170.34,172.4,168.47,157.85,Open
712,6028.936031929974,290.5950296634471,5252.928167930623,23048.135405556608,0.0,0.0,0.0,0.0,169.84,170.34,172.4,168.47,157.85,Open
713,6650.2698242986,926.345697205746,5792.856906993021,23320.893743144723,0.0,0.0,0.0,0.0,169.84,170.34,172.4,168.47,157.85,Open
714,7087.179373166487,1113.496853530032,6136.805550671286,22343.720179047607,0.0,0.0,0.0,0.0,169.84,170.34,172.4,168.47,157.85,Open
715,6757.088811050512,579.6030854705674,5814.314581670115,21471.10807551242,0.0,0.0,0.0,0.0,169.84,170.34,172.4,168.47,157.85,Open
716,6214.27669695338,155.4340309422053,5365.715070452103,22003.25840750437,0.0,0.0,0.0,0.0,169.84,170.34,172.4,168.47,157.85,Open
717,6076.768765064331,304.40840773682686,5297.206973696587,23105.28881612883,0.0,0.0,0.0,0.0,169.84,170.34,172.4,168.47,157.85,Open
718,6639.608042193418,906.8326242962628,5820.48366313978,23300.866580112768,0.0,0.0,0.0,0.0,169.84,170.34,172.4,168.47,157.85,Open
719,7041.447704010929,1075.074204811359,6115.750207394387,22293.920492401183,0.0,0.0,0.0,0.0,169.84,170.34,172.4,168.47,157.85,Open
720,6698.795461511071,537.7606198502326,5743.012516857686,21395.04508913101,0.0,0.0,0.0,0.0,169.93,170.17,172.1,167.88,157.14,Open
721,6199.524545612878,154.02587104152096,5346.403163242718,21951.469415601423,0.0,0.0,0.0,0.0,169.93,170.17,172.1,167.88,157.14,Open
722,6109.871698602641,345.1556378788517,5327.0465525444215,23133.45201414252,0.0,0.0,0.0,0.0,169.93,170.17,172.1,167.88,157.14,Open
723,6690.234743384689,956.7217179205082,5839.035611037685,23383.456275875127,0.0,0.0,0.0,0.0,169.93,170.17,172.1,167.88,157.14,Open
724,7084.11718417611,1104.757321448007,6136.626736715643,22361.53451937849,0.0,0.0,0.0,0.0,169.93,170.17,172.1,167.88,157.14,Open
725,6709.636057571895,528.2387767122718,5789.90647672492,21426.605752301904,0.0,0.0,0.0,0.0,169.93,170.17,172.1,167.88,157.14,Open
726,6142.505245507389,125.9520800056553,5370.1854193431645,21917.29359832926,0.0,0.0,0.0,0.0,169.93,170.17,172.1,167.88,157.14,Open
727,6035.3062790997365,322.1333410898854,5314.3060582048965,23051.46581548045,0.0,0.0,0.0,0.0,169.93,170.17,172.1,167.88,157.14,Open
728,6651.834446410471,911.5488423763328,5783.983264444264,23324.022987368466,0.0,0.0,0.0,0.0,169.93,170.17,172.1,167.88,157.14,Open
729,7069.096811902144,1067.921646585661,6079.406270910057,22322.08369041487,0.0,0.0,0.0,0.0,169.93,170.17,172.1,167.88,157.14,Open
730,6727.159825224856,565.3650242525368,5768.448802047826,21425.30935112349,0.0,0.0,0.0,0.0,169.93,170.17,172.1,167.88,157.14,Open
731,6224.044409280349,186.9723423686436,5369.671329220692,21981.10782874916,0.0,0.0,0.0,0.0,169.93,170.17,172.1,167.88,157.14,Open
732,6106.49658518989,334.1362278623853,5314.641334371726,23105.087650428733,0.0,0.0,0.0,0.0,169.93,170.17,172.1,167.88,157.14,Open
733,6675.661405999828,936.8510170997404,5815.454520637336,23353.90726970521,0.0,0.0,0.0,0.0,169.93,170.17,172.1,167.88,157.14,Open
734,7080.987939952367,1108.2888970719457,6131.284669790825,22352.213841940626,0.0,0.0,0.0,0.0,169.93,170.17,172.1,167.88,157.14,Open
735,6730.959621782258,568.9860068542965,5797.617828562001,21433.557144827504,0.0,0.0,0.0,0.0,169.93,170.17,172.1,167.88,157.14,Open
736,6186.225257661969,145.53220814850428,5365.0221663739885,21939.846508484665,0.0,0.0,0.0,0.0,169.93,170.17,172.1,167.88,157.14,Open
737,6071.940788261984,287.7340063731678,5337.507168949505,23071.09064711221,0.0,0.0,0.0,0.0,169.93,170.17,172.1,167.88,157.14,Open
738,6623.313620485499,901.602316093721,5841.002564549753,23292.7976003644,0.0,0.0,0.0,0.0,169.93,170.17,172.1,167.88,157.14,Open
739,7007.450700694407,1085.4230624941663,6066.799887037264,22297.04973662493,0.0,0.0,0.0,0.0,169.93,170.17,172.1,167.88,157.14,Open
740,6719.224955943222,568.8071928986541,5730.5402434516245,21411.02658641656,0.0,0.0,0.0,0.0,169.93,170.17,172.1,167.88,157.14,Open
741,6213.22616496398,164.82176361343429,5353.600424957326,21976.74923858037,0.0,0.0,0.0,0.0,169.93,170.17,172.1,167.88,157.14,Open
742,6090.604494882166,303.9390211032654,5318.508186162494,23093.598853778705,0.0,0.0,0.0,0.0,169.93,170.17,172.1,167.88,157.14,Open
743,6676.600179266951,931.9783368084832,5843.617718651023,23359.651668030223,0.0,0.0,0.0,0.0,169.93,170.17,172.1,167.88,157.14,Open
744,7080.49620157435,1119.9341559331604,6115.236117271915,22362.674458345708,0.0,0.0,0.0,0.0,169.71,170.15,172.12,167.7,156.97,Open
745,6746.985822556713,588.0073413857629,5772.338005583049,21434.227697161165,0.0,0.0,0.0,0.0,169.71,170.15,172.12,167.7,156.97,Open
746,6193.690740310042,144.77224883702385,5321.346857708319,21950.329476634204,0.0,0.0,0.0,0.0,169.71,170.15,172.12,167.7,156.97,Open
747,6058.015651466329,281.3637592034053,5248.547226017383,23077.32678381524,0.0,0.0,0.0,0.0,169.71,170.15,172.12,167.7,156.97,Open
748,6621.369018717888,897.9366300030506,5759.016365887686,23326.682844958646,0.0,0.0,0.0,0.0,169.71,170.15,172.12,167.7,156.97,Open
749,7063.441820554951,1114.301516330423,6110.341085236202,22365.356667680346,0.0,0.0,0.0,0.0,169.71,170.15,172.12,167.7,156.97,Open
750,6767.504723966686,614.9635451988632,5813.487567125269,21473.90204356933,0.0,0.0,0.0,0.0,169.71,170.15,172.12,167.7,156.97,Open
751,6239.355354232234,187.62054295784748,5375.572189756893,21977.73271533641,0.0,0.0,0.0,0.0,169.71,170.15,172.12,167.7,156.97,Open
752,6102.272105487837,313.662029941324,5303.174889466154,23095.47640031295,0.0,0.0,0.0,0.0,169.71,170.15,172.12,167.7,156.97,Open
753,6659.948129647748,919.6178221246984,5802.646971064445,23361.59626979784,0.0,0.0,0.0,0.0,169.71,170.15,172.12,167.7,156.97,Open
754,7057.719773974392,1095.5707544768757,6110.92223059204,22362.450940901155,0.0,0.0,0.0,0.0,169.71,170.15,172.12,167.7,156.97,Open
755,6712.877060517915,553.295082246671,5777.903589952421,21403.449345046207,0.0,0.0,0.0,0.0,169.71,170.15,172.12,167.7,156.97,Open
756,6141.901748407096,117.19019617917492,5334.087352047844,21871.83015010717,0.0,0.0,0.0,0.0,169.71,170.15,172.12,167.7,156.97,Open
757,6003.969133373396,253.71465131219043,5273.268255384953,23013.758422584346,0.0,0.0,0.0,0.0,169.71,170.15,172.12,167.7,156.97,Open
758,6608.203841233712,859.3575190731906,5738.497464477714,23320.826687911354,0.0,0.0,0.0,0.0,169.71,170.15,172.12,167.7,156.97,Open
759,7049.986070392856,1089.6028387073086,6066.86694227063,22382.81338009994,0.0,0.0,0.0,0.0,169.71,170.15,172.12,167.7,156.97,Open
760,6750.740915625205,622.3843243580252,5805.396235632448,21455.95359277172,0.0,0.0,0.0,0.0,169.71,170.15,172.12,167.7,156.97,Open
761,6247.737258402975,202.43974953171607,5383.060024149421,21970.691915832987,0.0,0.0,0.0,0.0,169.84,170.33,171.94,167.75,157.28,Open
762,6102.450919443479,320.99340212266475,5289.0485869704,23090.87194095516,0.0,0.0,0.0,0.0,169.84,170.33,171.94,167.75,157.28,Open
763,6653.957862133725,922.1659209926034,5778.015348674697,23366.04426694444,0.0,0.0,0.0,0.0,169.84,170.33,171.94,167.75,157.28,Open
764,7072.896608459546,1112.401618051722,6103.702617132976,22416.095127593893,0.0,0.0,0.0,0.0,169.84,170.33,171.94,167.75,157.28,Open
765,6745.33179346702,583.5816959836121,5780.228171375772,21465.073104509487,0.0,0.0,0.0,0.0,169.84,170.33,171.94,167.75,157.28,Open
766,6200.217449690992,136.81502781093454,5335.271994503974,21923.015644909818,0.0,0.0,0.0,0.0,169.84,170.33,171.94,167.75,157.28,Open
767,6045.185750148982,268.8467823084334,5258.426697066629,23029.225829747415,0.0,0.0,0.0,0.0,169.84,170.33,171.94,167.75,157.28,Open
768,6625.593498419941,917.6732203570868,5787.224267390284,23347.38056032426,0.0,0.0,0.0,0.0,169.84,170.33,171.94,167.75,157.28,Open
769,7071.264931114309,1122.7951792234396,6125.741437165909,22395.91150235075,0.0,0.0,0.0,0.0,169.84,170.33,171.94,167.75,157.28,Open
770,6772.1985903023,617.1987196443939,5833.53708190168,21477.88065408238,0.0,0.0,0.0,0.0,169.84,170.33,171.94,167.75,157.28,Open
771,6234.66148789662,203.69144722121325,5406.574059316405,21932.649246770052,0.0,0.0,0.0,0.0,169.84,170.33,171.94,167.75,157.28,Open
772,6094.605457139666,314.06436134151954,5308.449901157606,23056.85258589418,0.0,0.0,0.0,0.0,169.84,170.33,171.94,167.75,157.28,Open
773,6635.227100280178,886.894868242129,5805.060959465619,23340.8091474544,0.0,0.0,0.0,0.0,169.84,170.33,171.94,167.75,157.28,Open
774,7002.309799469686,1039.5572828718762,6112.509204448367,22335.58414406588,0.0,0.0,0.0,0.0,169.84,170.33,171.94,167.75,157.28,Open
775,6664.910216916825,504.7694450341994,5705.2380687282175,21362.63505967081,0.0,0.0,0.0,0.0,169.84,170.33,171.94,167.75,157.28,Open
776,6167.69566150852,113.6586205552364,5258.113772644255,21882.80485663472,0.0,0.0,0.0,0.0,169.84,170.33,171.94,167.75,157.28,Open
777,6050.416058351524,282.3248842149835,5233.79507467688,23041.206364775466,0.0,0.0,0.0,0.0,169.73,170.34,171.76,167.56,157.25,Open
778,6647.878187641882,949.2338835279804,5781.278703365172,23379.38825838426,0.0,0.0,0.0,0.0,169.73,170.34,171.76,167.56,157.25,Open
779,7107.228887942897,1172.3713484253108,6141.946451896007,22447.25345936459,0.0,0.0,0.0,0.0,169.73,170.34,171.76,167.56,157.25,Open
780,6817.416169335386,643.5737781016562,5841.628413394501,21491.090535055464,0.0,0.0,0.0,0.0,169.73,170.34,171.76,167.56,157.25,Open
781,6277.778002950908,197.8352901739228,5400.516736569016,21919.886400686075,0.0,0.0,0.0,0.0,169.73,170.34,171.76,167.56,157.25,Open
782,6095.477175173423,300.31803850150567,5314.3060582048965,23037.74184438489,0.0,0.0,0.0,0.0,169.73,170.34,171.76,167.56,157.25,Open
783,6633.461312468209,903.9939527504388,5789.839421491554,23381.332860151877,0.0,0.0,0.0,0.0,169.73,170.34,171.76,167.56,157.25,Open
784,7041.15713133301,1083.9701991045713,6084.211895967948,22400.71712740864,0.0,0.0,0.0,0.0,169.73,170.34,171.76,167.56,157.25,Open
785,6728.925613036825,597.1045013790729,5774.148496883929,21424.504688323104,0.0,0.0,0.0,0.0,169.73,170.34,171.76,167.56,157.25,Open
786,6195.70239731102,181.6973306771911,5338.848273616824,21890.359746260616,0.0,0.0,0.0,0.0,169.73,170.34,171.76,167.56,157.25,Open
787,6052.204197907949,271.5289916430702,5260.863037212257,23021.112146510142,0.0,0.0,0.0,0.0,169.73,170.34,171.76,167.56,157.25,Open
788,6635.249452024634,885.2184874079809,5798.936581484864,23382.897482263743,0.0,0.0,0.0,0.0,169.73,170.34,171.76,167.56,157.25,Open
789,7078.395137595551,1112.043990140437,6147.64614673211,22448.326343098444,0.0,0.0,0.0,0.0,169.73,170.34,171.76,167.56,157.25,Open
790,6777.67476769385,610.7837689857208,5820.796587562155,21488.050697809544,0.0,0.0,0.0,0.0,169.73,170.34,171.76,167.56,157.25,Open
791,6241.724639144497,168.3533392373728,5366.609140230316,21941.00879919634,0.0,0.0,0.0,0.0,169.73,170.34,171.76,167.56,157.25,Open
792,6071.24788418387,281.1178900143969,5266.674490770637,23040.80403337527,0.0,0.0,0.0,0.0,169.73,170.34,171.76,167.56,157.25,Open
793,6592.8258410484605,869.7734319893638,5735.032944087141,23345.257144601008,0.0,0.0,0.0,0.0,169.73,170.34,171.76,167.56,157.25,Open
794,6980.025110247745,1036.852721792784,6031.685296497977,22375.2808422185,0.0,0.0,0.0,0.0,169.73,170.34,171.76,167.56,157.25,Open
795,6681.964597936225,538.6546896284449,5738.117484821973,21386.61848147136,0.0,0.0,0.0,0.0,169.73,170.34,171.76,167.56,157.25,Open
796,6206.744159071942,147.70032736066906,5356.1038203363205,21873.6629931525,0.0,0.0,0.0,0.0,169.73,170.34,171.76,167.56,157.25,Open
797,6077.9757592649175,281.85549758142207,5294.971799251056,23053.72334167044,0.0,0.0,0.0,0.0,169.73,170.34,171.76,167.56,157.25,Open
798,6638.110475314913,942.7071741470306,5793.840383749054,23389.17832245569,0.0,0.0,0.0,0.0,169.73,170.34,171.76,167.56,157.25,Open
799,7098.154079694043,1182.3402264523777,6148.540216510322,22469.64990730881,0.0,0.0,0.0,0.0,169.73,170.34,171.76,167.56,157.25,Open
800,6827.966192718291,660.002310276307,5886.197791838383,21495.78440139108,0.0,0.0,0.0,0.0,169.73,170.34,171.76,167.56,157.25,Open
801,6243.311613000824,159.8820280888114,5378.522620024994,21900.48508649887,0.0,0.0,0.0,0.0,169.73,170.34,171.76,167.56,157.25,Open
802,6039.6425175240665,238.0013749601096,5226.486054239996,23006.49410563637,0.0,0.0,0.0,0.0,170.09,170.25,171.93,167.92,157.44,Open
803,6626.711085642706,884.8832112411513,5766.392441557938,23386.02672648749,0.0,0.0,0.0,0.0,170.09,170.25,171.93,167.92,157.44,Open
804,7053.338832061152,1100.4434347681326,6106.787157867809,22453.668410023263,0.0,0.0,0.0,0.0,170.09,170.25,171.93,167.92,157.44,Open
805,6747.164636512356,593.908201921964,5800.210630918817,21463.374371930884,0.0,0.0,0.0,0.0,170.09,170.25,171.93,167.92,157.44,Open
806,6227.285412226369,159.27853098851813,5369.514867009505,21887.31990901469,0.0,0.0,0.0,0.0,170.09,170.25,171.93,167.92,157.44,Open
807,6057.635671810588,264.8681717953887,5263.679357013626,23003.007233501343,0.0,0.0,0.0,0.0,170.09,170.25,171.93,167.92,157.44,Open
808,6605.298114454522,884.927914730062,5759.373993798971,23342.351417821817,0.0,0.0,0.0,0.0,170.09,170.25,171.93,167.92,157.44,Open
809,7050.544864004239,1118.0566093989146,6119.862928374163,22427.136889354813,0.0,0.0,0.0,0.0,170.09,170.25,171.93,167.92,157.44,Open
810,6798.864221437481,654.0790979956506,5850.122076287517,21497.39372699186,0.0,0.0,0.0,0.0,170.09,170.25,171.93,167.92,157.44,Open
811,6289.132689134203,220.03057241804277,5428.41171364924,21937.63368578359,0.0,0.0,0.0,0.0,170.09,170.25,171.93,167.92,157.44,Open
812,6089.866887315141,278.4133289353048,5313.747264593514,23006.38234691409,0.0,0.0,0.0,0.0,170.09,170.25,171.93,167.92,157.44,Open
813,6544.993107914103,837.3634025291685,5719.99022006872,23259.828777292823,0.0,0.0,0.0,0.0,170.09,170.25,171.93,167.92,157.44,Open
814,6940.686040006404,1058.109230769781,6025.71738072841,22376.1302085078,0.0,0.0,0.0,0.0,170.09,170.25,171.93,167.92,157.44,Open
815,6739.050953275079,586.3756640405255,5767.957063669809,21468.58232838897,0.0,0.0,0.0,0.0,170.09,170.25,171.93,167.92,157.44,Open
816,6272.301825559357,174.54477245149286,5374.141678111753,21916.6230459956,0.0,0.0,0.0,0.0,170.09,170.25,171.93,167.92,157.44,Open
817,6083.340177934191,287.309323228517,5278.163287420665,23014.764251084835,0.0,0.0,0.0,0.0,170.09,170.25,171.93,167.92,157.44,Open
818,6638.2669375261,913.0240575103828,5780.071709164586,23397.40376441524,0.0,0.0,0.0,0.0,170.09,170.25,171.93,167.92,157.44,Open
819,7081.233809141375,1133.7028305176295,6118.0077335843725,22480.378744647354,0.0,0.0,0.0,0.0,170.01,170.17,171.78,167.63,157.06,Open
820,6800.294733082621,633.7166587968659,5835.34757320256,21487.31309024252,0.0,0.0,0.0,0.0,170.01,170.17,171.78,167.63,157.06,Open
821,6247.737258402975,174.76828989604593,5384.222314861097,21871.31605998469,0.0,0.0,0.0,0.0,170.01,170.17,171.78,167.63,157.06,Open
822,6040.447180324457,247.56792158698104,5251.788228963403,22966.19391038345,0.0,0.0,0.0,0.0,170.01,170.17,171.78,167.63,157.06,Open
823,6574.20683791719,849.2992340683024,5724.013534070675,23338.52926951996,0.0,0.0,0.0,0.0,170.01,170.17,171.78,167.63,157.06,Open
824,7019.520642700272,1087.50177472851,6075.137087719094,22421.10191835188,0.0,0.0,0.0,0.0,170.01,170.17,171.78,167.63,157.06,Open
825,6792.717491712272,647.2394641923266,5851.105553043551,21471.555110401525,0.0,0.0,0.0,0.0,170.01,170.17,171.78,167.63,157.06,Open
826,6267.362090034734,211.87218569185563,5402.662504036725,21877.127513543077,0.0,0.0,0.0,0.0,170.01,170.17,171.78,167.63,157.06,Open
827,6085.284779701803,293.45605295372644,5285.025272968444,22999.162733455032,0.0,0.0,0.0,0.0,170.01,170.17,171.78,167.63,157.06,Open
828,6622.330143729466,894.7179788014864,5780.876371964976,23372.660383303213,0.0,0.0,0.0,0.0,170.01,170.17,171.78,167.63,157.06,Open
829,7036.39620976403,1100.6669522126856,6101.646256643088,22457.557613558485,0.0,0.0,0.0,0.0,170.01,170.17,171.78,167.63,157.06,Open
830,6749.735087124716,630.1850831729273,5810.827709535088,21448.421054890285,0.0,0.0,0.0,0.0,170.01,170.17,171.78,167.63,157.06,Open
831,6222.792711590852,183.01608360005423,5386.055157906432,21830.25590542029,0.0,0.0,0.0,0.0,170.01,170.17,171.78,167.63,157.06,Open
832,6055.735773531887,249.1325436988525,5294.256543428486,22966.43977957246,0.0,0.0,0.0,0.0,170.01,170.17,171.78,167.63,157.06,Open
833,6583.169887443768,854.2613213373807,5749.338060538538,23356.656534273214,0.0,0.0,0.0,0.0,170.01,170.17,171.78,167.63,157.06,Open
834,7011.094035040622,1088.619361951275,6053.813523508731,22424.83465967592,0.0,0.0,0.0,0.0,170.01,170.17,171.78,167.63,157.06,Open
835,6777.048918849101,625.4241616039469,5835.146407502461,21470.05754352302,0.0,0.0,0.0,0.0,170.01,170.41,171.99,167.78,157.47,Open
836,6246.507912457933,186.19003131270784,5432.032696250999,21873.305365241216,0.0,0.0,0.0,0.0,170.01,170.41,171.99,167.78,157.47,Open
837,6076.992282508884,280.35793070291646,5287.148688691698,23002.44843988996,0.0,0.0,0.0,0.0,170.01,170.41,171.99,167.78,157.47,Open
838,6613.612963391896,885.3078943858021,5744.308918036094,23390.29590967845,0.0,0.0,0.0,0.0,170.01,170.41,171.99,167.78,157.47,Open
839,7019.252421766809,1085.624228194264,6076.142916219583,22457.28939262502,0.0,0.0,0.0,0.0,170.01,170.41,171.99,167.78,157.47,Open
840,6758.228750017733,604.9946671717962,5816.952087515841,21451.125615969377,0.0,0.0,0.0,0.0,170.01,170.41,171.99,167.78,157.47,Open
841,6236.941365831061,162.2736647455293,5389.005588174533,21834.390978144525,0.0,0.0,0.0,0.0,170.01,170.41,171.99,167.78,157.47,Open
842,6041.76593324732,250.987738488643,5268.216761138054,22963.69051500446,0.0,0.0,0.0,0.0,170.01,170.41,171.99,167.78,157.47,Open
843,6596.02214050557,904.4856911284556,5769.499334037225,23393.447505646647,0.0,0.0,0.0,0.0,170.01,170.41,171.99,167.78,157.47,Open
844,7053.674108227981,1140.1624846652132,6131.351725024191,22481.07164872547,0.0,0.0,0.0,0.0,170.01,170.41,171.99,167.78,157.47,Open
845,6797.500765025708,662.259836466293,5858.548683947169,21465.743656843148,0.0,0.0,0.0,0.0,170.01,170.41,171.99,167.78,157.47,Open
846,6245.077400812794,177.40579574177215,5394.9064487107335,21826.43375711844,0.0,0.0,0.0,0.0,170.01,170.41,171.99,167.78,157.47,Open
847,6050.684279284988,232.1452179128192,5278.364453120763,22953.900450933037,0.0,0.0,0.0,0.0,170.01,170.41,171.99,167.78,157.47,Open
848,6617.636277393852,887.5654205757882,5808.681942067378,23400.57771212789,0.0,0.0,0.0,0.0,170.01,170.41,171.99,167.78,157.47,Open
849,7053.294128572242,1134.4851415735652,6143.511074007878,22486.16784646128,0.0,0.0,0.0,0.0,170.01,170.41,171.99,167.78,157.47,Open
850,6812.387026832942,665.6573016234996,5869.657500941456,21486.77664837559,0.0,0.0,0.0,0.0,170.01,170.41,171.99,167.78,157.47,Open
851,6270.401927280656,196.78475818452335,5413.771321031013,21860.74368485733,0.0,0.0,0.0,0.0,170.01,170.41,171.99,167.78,157.47,Open
852,6054.14879967556,252.48530536714856,5274.117621674254,22967.289145861763,0.0,0.0,0.0,0.0,170.19,170.24,171.78,167.88,157.16,Open
853,6577.514896096575,858.1728766170594,5744.487731991736,23376.23666241606,0.0,0.0,0.0,0.0,170.19,170.24,171.78,167.88,157.16,Open
854,7014.267982753276,1096.2189550660796,6091.453861171468,22464.82193050646,0.0,0.0,0.0,0.0,170.19,170.24,171.78,167.88,157.16,Open
855,6791.219924833767,652.5368276282344,5852.49136119978,21460.87097655189,0.0,0.0,0.0,0.0,170.19,170.24,171.78,167.88,157.16,Open
856,6263.092906843771,197.1647378402636,5413.458396608638,21840.828280547656,0.0,0.0,0.0,0.0,170.19,170.24,171.78,167.88,157.16,Open
857,6038.569633790212,230.93822371223257,5267.166229148654,22966.84211097266,0.0,0.0,0.0,0.0,170.19,170.24,171.78,167.88,157.16,Open
858,6542.377953812833,836.9834228734283,5724.482920704237,23377.220139172096,0.0,0.0,0.0,0.0,170.19,170.24,171.78,167.88,157.16,Open
859,6987.736462084826,1114.3909233082445,6085.687111101998,22448.63926752082,0.0,0.0,0.0,0.0,170.19,170.24,171.78,167.88,157.16,Open
860,6789.811764933082,668.0712900246727,5867.198809051372,21459.82044456249,0.0,0.0,0.0,0.0,170.19,170.24,171.78,167.88,157.16,Open
861,6294.653570014664,212.43097930323836,5457.60309190787,21867.158635516007,0.0,0.0,0.0,0.0,170.19,170.24,171.78,167.88,157.16,Open
862,6072.767802806831,274.54647714453665,5344.704430664115,22999.07332647721,0.0,0.0,0.0,0.0,170.19,170.24,171.78,167.88,157.16,Open
863,6581.15823044279,869.9969494339168,5758.770496698678,23398.67781384919,0.0,0.0,0.0,0.0,170.19,170.24,171.78,167.88,157.16,Open
864,6991.960941786879,1061.9090273271831,6039.91073845753,22430.042616134004,0.0,0.0,0.0,0.0,170.19,170.24,171.78,167.88,157.16,Open
865,6749.980956313724,619.5903563011118,5813.331104914082,21443.660133321304,0.0,0.0,0.0,0.0,170.19,170.24,171.78,167.88,157.16,Open
866,6259.069592841815,219.98586892913207,5422.510853113038,21829.875925764554,0.0,0.0,0.0,0.0,170.19,170.24,171.78,167.88,157.16,Open
867,6087.318788447236,302.03912282456434,5304.918325533668,23000.36972765562,0.0,0.0,0.0,0.0,170.19,170.24,171.78,167.88,157.16,Open
868,6618.97738206117,909.760702819908,5777.881238207965,23442.129605070302,0.0,0.0,0.0,0.0,170.19,170.24,171.78,167.88,157.16,Open
869,7056.199855351431,1139.4695805870988,6132.290498291314,22510.330082217468,0.0,0.0,0.0,0.0,170.19,170.24,171.78,167.88,157.16,Open
870,6818.377294346964,664.1373830005388,5881.727442947322,21490.93407284428,0.0,0.0,0.0,0.0,170.19,170.24,171.78,167.88,157.16,Open
871,6236.382572219679,158.58562691040362,5386.502192795539,21800.773954483742,0.0,0.0,0.0,0.0,170.19,170.24,171.78,167.88,157.16,Open
872,5986.065386064695,176.1988015411856,5220.853414637258,22891.270862969264,0.0,0.0,0.0,0.0,170.19,170.24,171.78,167.88,157.16,Open
873,6538.734619466618,834.6811931945316,5732.328383008049,23367.85475824532,0.0,0.0,0.0,0.0,170.19,170.24,171.78,167.88,157.16,Open
874,7035.0104016078,1165.9340460221822,6139.823036172752,22504.58568389245,0.0,0.0,0.0,0.0,170.19,170.24,171.78,167.88,157.16,Open
875,6844.461780126308,732.9360524339739,5936.265699418271,21507.004977107645,0.0,0.0,0.0,0.0,170.19,170.24,171.78,167.88,157.16,Open
876,6309.0704451883375,231.47466557915996,5447.902434814267,21847.332638184147,0.0,0.0,0.0,0.0,170.19,170.24,171.78,167.88,157.16,Open
877,6084.770689579331,257.35798565840554,5288.400386381196,22996.234654931388,0.0,0.0,0.0,0.0,170.11,170.18,171.82,167.54,157.19,Open
878,6584.846268277916,863.1349638861375,5773.47794455027,23425.34344498437,0.0,0.0,0.0,0.0,170.11,170.18,171.82,167.54,157.19,Open
879,6997.347712200608,1085.4230624941663,6091.207991982459,22490.07940174096,0.0,0.0,0.0,0.0,170.11,170.18,171.82,167.54,157.19,Open
880,6746.605842900974,605.3746468275365,5806.782043788677,21425.84579299042,0.0,0.0,0.0,0.0,170.11,170.18,171.82,167.54,157.19,Open
881,6230.794636105852,163.70417639066892,5385.228143361586,21766.75459942277,0.0,0.0,0.0,0.0,170.11,170.18,171.82,167.54,157.19,Open
882,6034.211043621426,242.58348257344755,5272.240075140009,22933.135680334053,0.0,0.0,0.0,0.0,170.11,170.18,171.82,167.54,157.19,Open
883,6585.11448921138,886.3584263752016,5772.963854427798,23437.8827736238,0.0,0.0,0.0,0.0,170.11,170.18,171.82,167.54,157.19,Open
884,7060.223169353387,1170.9631885246265,6154.575187513255,22569.741018979672,0.0,0.0,0.0,0.0,170.11,170.18,171.82,167.54,157.19,Open
885,6849.870902284491,718.4074185380243,5926.632097558034,21537.716273989237,0.0,0.0,0.0,0.0,170.11,170.18,171.82,167.54,157.19,Open
886,6297.335779349301,215.7837409715344,5464.800353622479,21847.89143179553,0.0,0.0,0.0,0.0,170.11,170.18,171.82,167.54,157.19,Open
887,6035.820369222209,241.55530232850344,5312.696732604115,22937.02488386928,0.0,0.0,0.0,0.0,170.11,170.18,171.82,167.54,157.19,Open
888,6523.289564048,812.865890606152,5722.247746258706,23387.613700343813,0.0,0.0,0.0,0.0,170.11,170.18,171.82,167.54,157.19,Open
889,6982.036767248723,1056.5222569134542,6035.283927355281,22483.083305726446,0.0,0.0,0.0,0.0,170.11,170.18,171.82,167.54,157.19,Open
890,6786.414299775875,664.807935334198,5854.771239134221,21473.38795344686,0.0,0.0,0.0,0.0,170.11,170.18,171.82,167.54,157.19,Open
891,6254.040450339371,200.9198309087552,5417.504062355049,21789.75454446728,0.0,0.0,0.0,0.0,170.11,170.18,171.82,167.54,157.19,Open
892,6044.962232704429,244.0363459630425,5273.9835112075225,22923.144450562533,0.0,0.0,0.0,0.0,170.11,170.18,171.82,167.54,157.19,Open
893,6593.921076526771,885.3302461302575,5768.292339836638,23441.05672133645,0.0,0.0,0.0,0.0,170.23,170.04,171.76,168.03,157.84,Open
894,7053.785866950258,1153.8194005274058,6135.285632048325,22555.14532985036,0.0,0.0,0.0,0.0,170.23,170.04,171.76,168.03,157.84,Open
895,6863.684280357872,713.6464969690439,5925.112178935073,21545.047646170577,0.0,0.0,0.0,0.0,170.23,170.04,171.76,168.03,157.84,Open
896,6306.455291087066,211.67101999175787,5452.4845424276045,21849.03137076275,0.0,0.0,0.0,0.0,170.23,170.04,171.76,168.03,157.84,Open
897,6060.876674756608,242.9411104847325,5288.646255570204,22956.426198056484,0.0,0.0,0.0,0.0,170.23,170.04,171.76,168.03,157.84,Open
898,6571.994015216114,861.8832661966403,5761.631519988957,23424.49407869507,0.0,0.0,0.0,0.0,170.23,170.04,171.76,168.03,157.84,Open
899,7000.320494213163,1099.16938533418,6105.289590989303,22517.572047420985,0.0,0.0,0.0,0.0,170.23,170.04,171.76,168.03,157.84,Open
900,6775.439593248319,626.7205627823547,5864.203675294361,21478.35004071594,0.0,0.0,0.0,0.0,170.23,170.04,171.76,168.03,157.84,Open
901,6222.725656357487,149.10848726135342,5400.047349935455,21749.16377653644,0.0,0.0,0.0,0.0,170.23,170.04,171.76,168.03,157.84,Open
902,6019.257726580826,236.57086331497,5268.172057649143,22897.417592694477,0.0,0.0,0.0,0.0,170.23,170.04,171.76,168.03,157.84,Open
903,6570.317634381966,879.5634960607882,5762.346775811527,23435.87111662282,0.0,0.0,0.0,0.0,170.23,170.04,171.76,168.03,157.84,Open
904,7042.677049955971,1141.1906649101577,6123.126283064638,22563.95191716575,0.0,0.0,0.0,0.0,170.23,170.04,171.76,168.03,157.84,Open
905,6861.73967859026,719.9496889054404,5927.257946402782,21549.942678206287,0.0,0.0,0.0,0.0,170.23,170.04,171.76,168.03,157.84,Open
906,6305.62827654222,218.6224125173584,5442.448609167172,21823.99741697281,0.0,0.0,0.0,0.0,170.23,170.04,171.76,168.03,157.84,Open
907,6042.347078603159,223.4280375752494,5251.721173730037,22915.522505703277,0.0,0.0,0.0,0.0,170.23,170.04,171.76,168.03,157.84,Open
908,6541.506235779076,814.5646231847553,5719.319667735061,23417.49798268056,0.0,0.0,0.0,0.0,170.23,170.04,171.76,168.03,157.84,Open
909,6958.723897781837,1056.3210912133566,6049.790209506776,22504.809201337004,0.0,0.0,0.0,0.0,170.23,170.04,171.76,168.03,157.84,Open
910,6735.787598584605,649.9663770158741,5815.566279359613,21436.99931347362,0.0,0.0,0.0,0.0,170.01,170.3,172.1,168.24,157.64,Open
911,6227.955964560028,192.1802988267301,5394.414710332717,21745.274573001218,0.0,0.0,0.0,0.0,170.01,170.3,172.1,168.24,157.64,Open
912,6055.266386898325,241.73411628414587,5286.5451915914055,22920.64105518354,0.0,0.0,0.0,0.0,170.01,170.3,172.1,168.24,157.64,Open
913,6595.373939916366,873.9532082025062,5776.718947496289,23460.74860820158,0.0,0.0,0.0,0.0,170.01,170.3,172.1,168.24,157.64,Open
914,7055.976337906878,1151.9195022487047,6146.908539165085,22604.56503684104,0.0,0.0,0.0,0.0,170.01,170.3,172.1,168.24,157.64,Open
915,6863.796039080148,716.1722440924935,5934.455208117391,21556.55879456506,0.0,0.0,0.0,0.0,170.01,170.3,172.1,168.24,157.64,Open
916,6300.330913106312,207.13361586733052,5452.663356383247,21815.950788968898,0.0,0.0,0.0,0.0,170.01,170.3,172.1,168.24,157.64,Open
917,6023.616316749611,211.4475025472048,5259.968967434045,22896.38941244953,0.0,0.0,0.0,0.0,170.01,170.3,172.1,168.24,157.64,Open
918,6525.43533151571,822.4547889774786,5719.073798546052,23413.944055312164,0.0,0.0,0.0,0.0,170.01,170.3,172.1,168.24,157.64,Open
919,6988.675235351949,1093.6485044537192,6094.426643184023,22560.979135153197,0.0,0.0,0.0,0.0,170.01,170.3,172.1,168.24,157.64,Open
920,6807.2461256082215,665.4784876678572,5916.909088719975,21520.058395869542,0.0,0.0,0.0,0.0,170.01,170.3,172.1,168.24,157.64,Open
921,6249.860674126229,190.5039179925821,5450.785809849001,21779.271576317737,0.0,0.0,0.0,0.0,170.01,170.3,172.1,168.24,157.64,Open
922,6004.416168262502,249.3784128878609,5249.1507231176765,22882.799551820703,0.0,0.0,0.0,0.0,170.01,170.3,172.1,168.24,157.64,Open
923,6567.903645980793,888.7947665208301,5741.693763934823,23426.21516301813,0.0,0.0,0.0,0.0,170.01,170.3,172.1,168.24,157.64,Open
924,7064.648814755537,1166.269322189012,6130.390600012613,22617.79726955858,0.0,0.0,0.0,0.0,170.01,170.3,172.1,168.24,157.64,Open
925,6879.464611943318,739.1945408814598,5938.724391308355,21593.305062449585,0.0,0.0,0.0,0.0,170.01,170.3,172.1,168.24,157.64,Open
926,6306.008256197961,227.42899983274933,5456.016118051543,21825.629094318047,0.0,0.0,0.0,0.0,170.01,170.3,172.1,168.24,157.64,Open
927,6022.364619060114,221.1258078963528,5256.0797638988215,22899.742174117822,0.0,0.0,0.0,0.0,170.01,170.3,172.1,168.24,157.64,Open
928,6511.689008675696,816.799797630286,5725.444045715814,23403.63990111827,0.0,0.0,0.0,0.0,170.01,170.3,172.1,168.24,157.64,Open
929,6979.399261402997,1094.654332954208,6127.64133544461,22558.98982989667,0.0,0.0,0.0,0.0,170.01,170.3,172.1,168.24,157.64,Open
930,6836.146931188933,702.515328230301,5914.629210785533,21521.39950053686,0.0,0.0,0.0,0.0,170.01,170.3,172.1,168.24,157.64,Open
931,6310.791529511396,231.4299620902493,5450.539940659994,21776.70112570538,0.0,0.0,0.0,0.0,170.01,170.3,172.1,168.24,157.64,Open
932,6056.272215398814,254.67577632376867,5286.299322402397,22908.951092833413,0.0,0.0,0.0,0.0,170.01,170.3,172.1,168.24,157.64,Open
933,6566.2496168911,877.7306530154531,5745.404153514404,23448.298686539973,0.0,0.0,0.0,0.0,170.01,170.3,172.1,168.24,157.64,Open
934,7031.098846328122,1145.2586824010232,6107.569468923744,22615.45033639077,0.0,0.0,0.0,0.0,170.01,170.3,172.1,168.24,157.64,Open
935,6846.741658060749,711.1207498455942,5905.129719392028,21546.88048921591,0.0,0.0,0.0,0.0,170.22,170.18,171.79,167.99,157.61,Open
936,6280.415508796634,195.04132211700943,5427.897623526767,21779.562148995657,0.0,0.0,0.0,0.0,170.22,170.18,171.79,167.99,157.61,Open
937,6016.731979457376,193.85667966087811,5249.7989237068805,22875.736400572827,0.0,0.0,0.0,0.0,170.22,170.18,171.79,167.99,157.61,Open
938,6497.182726524202,818.3644197421575,5696.073853501542,23386.56316835441,0.0,0.0,0.0,0.0,170.22,170.18,171.79,167.99,157.61,Open
939,6954.94645296889,1099.88464115675,6062.217779423926,22534.112338317915,0.0,0.0,0.0,0.0,170.22,170.18,171.79,167.99,157.61,Open
940,6816.410340834897,711.6795434569768,5901.709902490366,21508.390785263877,0.0,0.0,0.0,0.0,170.22,170.18,171.79,167.99,157.61,Open
941,6308.7798725104185,270.9925497761428,5472.51170545956,21803.813791729663,0.0,0.0,0.0,0.0,170.22,170.18,171.79,167.99,157.61,Open
942,6065.011747480839,281.631980136869,5294.480060873039,22918.651749927016,0.0,0.0,0.0,0.0,170.22,170.18,171.79,167.99,157.61,Open
943,6579.973587986659,874.7131675139866,5763.844342690032,23477.087733398406,0.0,0.0,0.0,0.0,170.22,170.18,171.79,167.99,157.61,Open
944,7034.719828929881,1146.8903597462606,6131.105855835182,22630.358949942467,0.0,0.0,0.0,0.0,170.22,170.18,171.79,167.99,157.61,Open
945,6851.279062185176,718.1615493490159,5928.308478392181,21560.44799810028,0.0,0.0,0.0,0.0,170.22,170.18,171.79,167.99,157.61,Open
946,6279.320273318323,194.05784536097596,5438.671164354225,21753.12003530503,0.0,0.0,0.0,0.0,170.22,170.18,171.79,167.99,157.61,Open
947,6008.908868898019,207.49124377861543,5272.910627473668,22858.413798619964,0.0,0.0,0.0,0.0,170.22,170.18,171.79,167.99,157.61,Open
948,6519.690933190695,847.0640596227718,5734.362391753482,23436.54166895648,0.0,0.0,0.0,0.0,170.22,170.18,171.79,167.99,157.61,Open
