sample_index,EXG Channel 0,EXG Channel 1,EXG Channel 2,EXG Channel 3,EXG Channel 4,EXG Channel 5,EXG Channel 6,EXG Channel 7,thumb_ext_angle,index_ext_angle,middle_ext_angle,ring_ext_angle,pinky_ext_angle,hand_state
0,7569.64177723429,1776.1366696520652,9477.519628705935,16041.131739751308,0.0,0.0,0.0,0.0,175.2,172.06,175.23,175.28,176.04,Open
1,7233.560947604293,1412.026752475113,9192.847811323143,15850.76193222546,0.0,0.0,0.0,0.0,175.2,172.06,175.23,175.28,176.04,Open
2,6994.598447632605,1282.230172423145,9010.770500990213,16374.172732135385,0.0,0.0,0.0,0.0,175.2,172.06,175.23,175.28,176.04,Open
3,0.0,0.0,0.0,0.0,0.0,0.0,0.0,0.0,175.04,171.98,175.14,175.32,175.57,Open
4,7813.521660986145,2063.4236411361267,10663.614948226805,14500.224828746896,0.0,0.0,0.0,0.0,175.04,171.98,175.14,175.32,175.57,Open
5,7833.370010062458,1338.5342167060635,10663.25732031552,11966.833408693485,0.0,0.0,0.0,0.0,175.04,171.98,175.14,175.32,175.57,Open
6,7092.834364513679,763.7144045489317,9981.149134772912,13331.407407689978,0.0,0.0,0.0,0.0,175.04,171.98,175.14,175.32,175.57,Open
7,6625.615850164396,1115.5755657643756,9578.527161899468,16564.56489140569,0.0,0.0,0.0,0.0,175.04,171.98,175.14,175.32,175.57,Open
8,7233.203319693008,1998.11184383772,10167.11564864107,16920.024683478438,0.0,0.0,0.0,0.0,175.04,171.98,175.14,175.32,175.57,Open
9,7841.416638066368,2104.5284991894364,10699.243628888564,14515.73693939888,0.0,0.0,0.0,0.0,175.04,171.98,175.14,175.32,175.57,Open
10,7908.650685387932,1413.61372633144,10748.015135290045,12048.506682933174,0.0,0.0,0.0,0.0,175.04,171.98,175.14,175.32,175.57,Open
11,7217.579450318748,875.9425134590285,10122.72508415283,13418.154527921026,0.0,0.0,0.0,0.0,175.04,171.98,175.14,175.32,175.57,Open
12,6707.624400570918,1181.8261363299057,9665.788372252986,16625.406339813035,0.0,0.0,0.0,0.0,175.04,171.98,175.14,175.32,175.57,Open
13,7210.6280577931475,1976.4082999716163,10149.591880988108,16915.889610754206,0.0,0.0,0.0,0.0,175.04,171.98,175.14,175.32,175.57,Open
14,7795.193230532794,2052.247768908473,10633.48479670105,14517.100395810652,0.0,0.0,0.0,0.0,175.04,171.98,175.14,175.32,175.57,Open
15,7860.437972597835,1355.096859347446,10675.081393132376,12017.258944184656,0.0,0.0,0.0,0.0,175.04,171.98,175.14,175.32,175.57,Open
16,7161.677737436025,813.7152568954536,10063.828237513097,13401.994216679836,0.0,0.0,0.0,0.0,175.04,171.98,175.14,175.32,175.57,Open
17,6672.688623987273,1145.303385889934,9636.686400972176,16612.174107095492,0.0,0.0,0.0,0.0,175.04,171.98,175.14,175.32,175.57,Open
18,7206.068301924265,1965.232427743963,10132.135168568511,16925.165584703158,0.0,0.0,0.0,0.0,175.04,171.98,175.14,175.32,175.57,Open
19,7801.295256769092,2056.941635244088,10660.485704003062,14522.30835226874,0.0,0.0,0.0,0.0,175.04,171.98,175.14,175.32,175.57,Open
20,7861.689670287332,1367.6138362424178,10700.808251000435,12022.645714598384,0.0,0.0,0.0,0.0,175.04,171.98,175.14,175.32,175.57,Open
21,7169.634958462115,831.5966524596993,10088.638673858486,13370.388850020034,0.0,0.0,0.0,0.0,175.04,171.98,175.14,175.32,175.57,Open
22,6668.151219862845,1148.4773336025876,9640.709714974131,16585.821400382687,0.0,0.0,0.0,0.0,174.86,171.96,175.2,175.28,176.07,Open
23,7207.498813569405,1979.4928407064488,10134.705619180872,16939.671866854653,0.0,0.0,0.0,0.0,174.86,171.96,175.2,175.28,176.07,Open
24,7815.913297642863,2084.501336157481,10678.143582122751,14540.457968766448,0.0,0.0,0.0,0.0,174.86,171.96,175.2,175.28,176.07,Open
25,7896.401929426423,1393.0501214325573,10723.428216389206,12042.449360185788,0.0,0.0,0.0,0.0,174.86,171.96,175.2,175.28,176.07,Open
26,7195.205354118986,844.8512369216963,10091.075014004116,13402.307141102212,0.0,0.0,0.0,0.0,174.86,171.96,175.2,175.28,176.07,Open
27,6681.405804324842,1145.102220189836,9637.021677139006,16592.817496397198,0.0,0.0,0.0,0.0,174.86,171.96,175.2,175.28,176.07,Open
28,7194.646560507604,1958.750421851924,10144.316869296656,16931.736997573018,0.0,0.0,0.0,0.0,174.86,171.96,175.2,175.28,176.07,Open
29,7774.227294233716,2052.493638097482,10654.9648231226,14514.172317287008,0.0,0.0,0.0,0.0,174.86,171.96,175.2,175.28,176.07,Open
30,7883.1920484533375,1388.7809382415935,10714.554573840447,12031.80992982506,0.0,0.0,0.0,0.0,174.86,171.96,175.2,175.28,176.07,Open
31,7197.127604142142,842.5937107317103,10093.62311287202,13410.13025166157,0.0,0.0,0.0,0.0,174.86,171.96,175.2,175.28,176.07,Open
32,6695.666217287328,1151.5395225929649,9651.57266277941,16606.027377370283,0.0,0.0,0.0,0.0,174.86,171.96,175.2,175.28,176.07,Open
33,7210.940982215522,1968.1158027786976,10144.227462318831,16966.628070667753,0.0,0.0,0.0,0.0,174.86,171.96,175.2,175.28,176.07,Open
34,7792.77924213162,2059.221513178529,10659.658689458214,14561.69212599899,0.0,0.0,0.0,0.0,174.86,171.96,175.2,175.28,176.07,Open
35,7867.098792445517,1376.6886444912725,10714.867498262824,12024.255040199168,0.0,0.0,0.0,0.0,174.86,171.96,175.2,175.28,176.07,Open
36,7170.171400329042,827.8192076467524,10115.416063715944,13350.227576521347,0.0,0.0,0.0,0.0,174.86,171.96,175.2,175.28,176.07,Open
37,6664.932568661281,1132.7417055060514,9674.371442123824,16507.634998278023,0.0,0.0,0.0,0.0,174.86,171.96,175.2,175.28,176.07,Open
38,7192.56784827326,1957.8116485848009,10137.678401193429,16914.369692131244,0.0,0.0,0.0,0.0,174.67,172.06,175.33,175.4,175.9,Open
39,7811.554707474078,2079.8521733107773,10668.085297117865,14586.256693155372,0.0,0.0,0.0,0.0,174.67,172.06,175.33,175.4,175.9,Open
40,7884.443746142834,1392.9160109658255,10711.715902294623,12053.893453346904,0.0,0.0,0.0,0.0,174.67,172.06,175.33,175.4,175.9,Open
41,7185.683510981025,835.5752629727439,10096.439432673387,13390.326606074168,0.0,0.0,0.0,0.0,174.67,172.06,175.33,175.4,175.9,Open
42,6677.628359511896,1130.305365360423,9640.307383573936,16566.822417595675,0.0,0.0,0.0,0.0,174.67,172.06,175.33,175.4,175.9,Open
43,7183.47068827995,1932.554177350304,10110.453976446865,16955.362791462278,0.0,0.0,0.0,0.0,174.67,172.06,175.33,175.4,175.9,Open
44,7768.214674975237,2038.16616990163,10639.385657237252,14569.470533069436,0.0,0.0,0.0,0.0,174.67,172.06,175.33,175.4,175.9,Open
45,7878.185257695349,1390.7478917536607,10740.706114853156,12019.114138974446,0.0,0.0,0.0,0.0,174.67,172.06,175.33,175.4,175.9,Open
46,7218.115892185676,874.8919814696291,10147.222596075844,13367.572530218666,0.0,0.0,0.0,0.0,174.67,172.06,175.33,175.4,175.9,Open
47,6717.637982086895,1185.8270985874055,9675.779602024508,16572.18683626495,0.0,0.0,0.0,0.0,174.67,172.06,175.33,175.4,175.9,Open
48,7220.485177097938,1988.9252768665883,10159.538407270718,16991.952597135616,0.0,0.0,0.0,0.0,174.67,172.06,175.33,175.4,175.9,Open
49,7806.480861482723,2080.902705300177,10678.121230378298,14601.03119624033,0.0,0.0,0.0,0.0,174.67,172.06,175.33,175.4,175.9,Open
50,7898.011255027206,1405.6565053053505,10737.621574118326,12073.138305322922,0.0,0.0,0.0,0.0,174.67,172.06,175.33,175.4,175.9,Open
51,7203.654313523092,843.9795188879394,10115.550174182676,13361.559910960188,0.0,0.0,0.0,0.0,174.67,172.06,175.33,175.4,175.9,Open
52,6687.3290166054985,1133.0322781839702,9663.955529207651,16528.75739678829,0.0,0.0,0.0,0.0,174.67,172.06,175.33,175.4,175.9,Open
53,7173.479458508427,1940.6008053542143,10122.836842875106,16935.670904597155,0.0,0.0,0.0,0.0,174.67,172.06,175.33,175.4,175.9,Open
54,7750.377982899903,2043.038850192887,10627.71804663158,14580.668757041543,0.0,0.0,0.0,0.0,174.9,172.16,175.35,175.27,175.99,Open
55,7890.389310167946,1402.3931506148758,10737.353353184862,12067.39390699791,0.0,0.0,0.0,0.0,174.9,172.16,175.35,175.27,175.99,Open
56,7222.250964909907,857.7258417279533,10136.560813970664,13365.203245306402,0.0,0.0,0.0,0.0,174.9,172.16,175.35,175.27,175.99,Open
57,6700.293028389577,1147.2256359130904,9683.625064328322,16509.17726864544,0.0,0.0,0.0,0.0,174.9,172.16,175.35,175.27,175.99,Open
58,7208.035255436333,1972.9214278365885,10178.336224357632,16973.73592540454,0.0,0.0,0.0,0.0,174.9,172.16,175.35,175.27,175.99,Open
59,7801.11644281345,2083.786080334912,10703.088128934876,14642.337219993738,0.0,0.0,0.0,0.0,174.9,172.16,175.35,175.27,175.99,Open
60,7904.761481852709,1419.3804764009092,10740.996687531077,12079.86618040397,0.0,0.0,0.0,0.0,174.9,172.16,175.35,175.27,175.99,Open
61,7205.554211801793,842.4596002649785,10101.647389131474,13354.809684134683,0.0,0.0,0.0,0.0,174.9,172.16,175.35,175.27,175.99,Open
62,6678.365967078921,1120.6270600112748,9657.205302382148,16486.534951512214,0.0,0.0,0.0,0.0,174.9,172.16,175.35,175.27,175.99,Open
63,7178.553304499782,1944.9817472674547,10113.650275903974,16941.63882036672,0.0,0.0,0.0,0.0,174.9,172.16,175.35,175.27,175.99,Open
64,7776.864800079442,2066.239960937496,10637.999849081025,14635.788158868332,0.0,0.0,0.0,0.0,174.9,172.16,175.35,175.27,175.99,Open
65,7896.491336404245,1408.7857495290934,10743.164806743242,12078.39096526992,0.0,0.0,0.0,0.0,174.9,172.16,175.35,175.27,175.99,Open
66,7196.077072152743,833.6083094606769,10115.14784278248,13318.979837772828,0.0,0.0,0.0,0.0,174.9,172.16,175.35,175.27,175.99,Open
67,6690.346502106965,1132.4064293392216,9673.097392689871,16486.17732360093,0.0,0.0,0.0,0.0,174.9,172.16,175.35,175.27,175.99,Open
68,7179.581484744726,1951.016718270388,10151.62588973354,16963.364715977277,0.0,0.0,0.0,0.0,174.9,172.16,175.35,175.27,175.99,Open
69,7765.778334829609,2063.803620791867,10661.089201103354,14637.062208302284,0.0,0.0,0.0,0.0,174.9,172.16,175.35,175.27,175.99,Open
70,7869.624539568966,1390.189098142278,10727.473882135617,12032.122854247436,0.0,0.0,0.0,0.0,174.9,172.16,175.35,175.27,175.99,Open
71,7161.521275224838,807.0320853033168,10128.2906685222,13276.422116329924,0.0,0.0,0.0,0.0,174.9,172.16,175.35,175.27,175.99,Open
72,6675.102612388446,1107.9983243940264,9752.446085506212,16471.872207149532,0.0,0.0,0.0,0.0,174.9,172.16,175.35,175.27,175.99,Open
73,7191.539668028316,1950.390869425639,10264.010460854824,16988.488076745045,0.0,0.0,0.0,0.0,174.9,172.16,175.35,175.27,175.99,Open
74,7789.44883220778,2083.674321612635,10806.487298785129,14671.863874419198,0.0,0.0,0.0,0.0,174.9,172.16,175.35,175.27,175.99,Open
75,7925.258031518225,1439.7652673441492,10928.281954322096,12084.068308361568,0.0,0.0,0.0,0.0,174.9,172.16,175.35,175.27,175.99,Open
76,7208.750511258902,844.7841816883305,10288.776193711305,13264.732153979798,0.0,0.0,0.0,0.0,174.9,172.16,175.35,175.27,175.99,Open
77,6674.253246099144,1108.847690683328,9827.011505009115,16436.511747421235,0.0,0.0,0.0,0.0,174.9,172.16,175.35,175.27,175.99,Open
78,7143.863397105146,1913.5104910743823,10284.708176220438,16971.27723351446,0.0,0.0,0.0,0.0,174.9,172.16,175.35,175.27,175.99,Open
79,7753.216654445727,2055.444068365582,10792.360996289372,14653.46838873248,0.0,0.0,0.0,0.0,174.96,171.93,175.16,175.37,175.73,Open
80,7923.604002428532,1440.927558055825,10886.193619512753,12089.455078775298,0.0,0.0,0.0,0.0,174.96,171.93,175.16,175.37,175.73,Open
81,7237.807779050801,868.4323273220454,10263.585777710174,13328.25581172178,0.0,0.0,0.0,0.0,174.96,171.93,175.16,175.37,175.73,Open
82,6715.536918108096,1142.4870660885651,9815.902688014829,16475.135561840005,0.0,0.0,0.0,0.0,174.96,171.93,175.16,175.37,175.73,Open
83,7192.009054661877,1951.664918859592,10262.199969553943,16977.64748068422,0.0,0.0,0.0,0.0,174.96,171.93,175.16,175.37,175.73,Open
84,7786.118422283938,2082.9814175345205,10782.123897328842,14693.790935729854,0.0,0.0,0.0,0.0,174.96,171.93,175.16,175.37,175.73,Open
85,7924.207499528826,1434.8478835639817,10897.525953951592,12083.733032194736,0.0,0.0,0.0,0.0,174.96,171.93,175.16,175.37,175.73,Open
86,7230.901090014111,850.796800946808,10280.03666162928,13298.48328810731,0.0,0.0,0.0,0.0,174.96,171.93,175.16,175.37,175.73,Open
87,6676.354310077943,1107.17130984918,9769.187542103236,16402.894723760455,0.0,0.0,0.0,0.0,174.96,171.93,175.16,175.37,175.73,Open
88,7140.644745903582,1918.4055231100945,10189.176820418455,16961.77774212095,0.0,0.0,0.0,0.0,174.96,171.93,175.16,175.37,175.73,Open
89,7771.321567454525,2071.023234250931,10752.329021969916,14727.430311135093,0.0,0.0,0.0,0.0,174.96,171.93,175.16,175.37,175.73,Open
90,7912.875165089985,1429.1705404723336,10867.753430337125,12079.285035048131,0.0,0.0,0.0,0.0,174.96,171.93,175.16,175.37,175.73,Open
91,7219.032313708343,846.5946729892103,10233.097998273137,13271.281215105202,0.0,0.0,0.0,0.0,174.96,171.93,175.16,175.37,175.73,Open
92,6686.412595082831,1108.4453592831326,9763.554902500498,16415.63521809998,0.0,0.0,0.0,0.0,174.96,171.93,175.16,175.37,175.73,Open
93,7131.547585910272,1900.725293245947,10208.511079372296,16940.565936632865,0.0,0.0,0.0,0.0,174.96,171.93,175.16,175.37,175.73,Open
94,7753.350764912458,2054.6394055651917,10762.566120930447,14682.637415246656,0.0,0.0,0.0,0.0,174.96,171.93,175.16,175.37,175.73,Open
95,7927.359095497024,1440.636985377906,10881.566808410504,12094.618331744472,0.0,0.0,0.0,0.0,174.92,171.95,175.09,175.26,175.61,Open
96,7214.42785435055,842.0125653758723,10213.651980597018,13271.035345916194,0.0,0.0,0.0,0.0,174.92,171.95,175.09,175.26,175.61,Open
97,6719.627287343417,1131.9593944501155,9759.68805070973,16462.797398900675,0.0,0.0,0.0,0.0,174.92,171.95,175.09,175.26,175.61,Open
98,7208.370531603162,1964.3830614546607,10244.206815267422,17052.794045542963,0.0,0.0,0.0,0.0,174.92,171.95,175.09,175.26,175.61,Open
99,7783.749137371677,2089.8881065712103,10757.782847617013,14729.10669196924,0.0,0.0,0.0,0.0,174.92,171.95,175.09,175.26,175.61,Open
100,7920.206537271326,1440.324060955532,10867.306395448017,12063.459999973777,0.0,0.0,0.0,0.0,174.92,171.95,175.09,175.26,175.61,Open
101,7193.528973284838,826.0981233236937,10206.320608415675,13207.779909107676,0.0,0.0,0.0,0.0,174.92,171.95,175.09,175.26,175.61,Open
102,6667.480667529187,1083.9925508490269,9721.153643268784,16389.170752664897,0.0,0.0,0.0,0.0,174.92,171.95,175.09,175.26,175.61,Open
103,7158.168513556542,1920.4395318555275,10183.432422093443,17018.484117804066,0.0,0.0,0.0,0.0,174.92,171.95,175.09,175.26,175.61,Open
104,7781.044576292584,2086.088310013808,10746.159940500253,14753.20187249206,0.0,0.0,0.0,0.0,174.92,171.95,175.09,175.26,175.61,Open
105,7931.158892054426,1450.9187878273474,10860.62322385588,12057.20151152629,0.0,0.0,0.0,0.0,174.92,171.95,175.09,175.26,175.61,Open
106,7248.491912900438,869.9522459450062,10248.364239736107,13249.085932861082,0.0,0.0,0.0,0.0,174.92,171.95,175.09,175.26,175.61,Open
107,6715.112234963445,1124.0468769129368,9769.008728147594,16416.48458438928,0.0,0.0,0.0,0.0,174.92,171.95,175.09,175.26,175.61,Open
108,7138.566033669238,1910.0906741727204,10154.464561279365,17006.59298975384,0.0,0.0,0.0,0.0,174.92,171.95,175.09,175.26,175.61,Open
109,7722.237136630672,2042.1894839035847,10687.888942705267,14689.968787427995,0.0,0.0,0.0,0.0,174.92,171.95,175.09,175.26,175.61,Open
110,7912.383426711968,1430.0422585060903,10837.310354388996,12054.564005680562,0.0,0.0,0.0,0.0,174.92,171.95,175.09,175.26,175.61,Open
111,7247.709601844502,858.798725461808,10223.084416757158,13260.015935899728,0.0,0.0,0.0,0.0,174.92,171.95,175.09,175.26,175.61,Open
112,6710.954810494758,1120.850577455828,9754.16716982927,16410.62842734199,0.0,0.0,0.0,0.0,174.92,171.93,175.17,175.4,175.53,Open
113,7178.665063222059,1948.28980544684,10203.817213036682,17030.75522551003,0.0,0.0,0.0,0.0,174.92,171.93,175.17,175.4,175.53,Open
114,7784.710262383254,2100.125205531741,10778.189990304709,14753.000706791963,0.0,0.0,0.0,0.0,174.92,171.93,175.17,175.4,175.53,Open
115,7911.355246467024,1443.2297877347216,10893.59204692746,12027.339580933998,0.0,0.0,0.0,0.0,174.92,171.93,175.17,175.4,175.53,Open
116,7188.455127293483,821.1136843101602,10204.621875837074,13198.034548525162,0.0,0.0,0.0,0.0,174.92,171.93,175.17,175.4,175.53,Open
117,6666.69835647325,1075.5212397004652,9683.289788161492,16372.29518560114,0.0,0.0,0.0,0.0,174.92,171.93,175.17,175.4,175.53,Open
118,7166.148086327087,1916.5279765758487,10148.429590276432,17041.506414593034,0.0,0.0,0.0,0.0,174.92,171.93,175.17,175.4,175.53,Open
119,7771.947416299274,2074.8453825527886,10708.45254760415,14796.564256735355,0.0,0.0,0.0,0.0,174.92,171.93,175.17,175.4,175.53,Open
120,7931.404761243434,1450.5388081716071,10840.52900559056,12090.572665998065,0.0,0.0,0.0,0.0,174.92,171.93,175.17,175.4,175.53,Open
121,7230.543462102826,847.3099288117801,10202.029073480258,13219.291057502158,0.0,0.0,0.0,0.0,174.92,171.93,175.17,175.4,175.53,Open
122,6683.37275783691,1087.0323880949484,9729.69200965071,16347.976487633763,0.0,0.0,0.0,0.0,174.92,171.93,175.17,175.4,175.53,Open
123,7124.484434662394,1888.387130306617,10154.844540935104,16989.091573845337,0.0,0.0,0.0,0.0,174.92,171.93,175.17,175.4,175.53,Open
124,7756.547064369567,2063.803620791867,10723.539975111482,14762.6343086522,0.0,0.0,0.0,0.0,174.92,171.93,175.17,175.4,175.53,Open
125,7928.320220508603,1447.7001366257832,10856.28698543155,12055.323964992043,0.0,0.0,0.0,0.0,174.92,171.93,175.17,175.4,175.53,Open
126,7246.346145432729,856.8764754386516,10224.492576657842,13208.718682374798,0.0,0.0,0.0,0.0,174.92,171.93,175.17,175.4,175.53,Open
127,6727.629211858418,1123.2645658570011,9766.482981024144,16381.213531638808,0.0,0.0,0.0,0.0,174.92,171.93,175.17,175.4,175.53,Open
128,7179.067394622254,1947.328680435262,10187.120459928568,17041.774635526497,0.0,0.0,0.0,0.0,174.92,171.93,175.17,175.4,175.53,Open
129,7763.721974339721,2086.155365247174,10704.78686151348,14777.945253604086,0.0,0.0,0.0,0.0,174.92,171.93,175.17,175.4,175.53,Open
130,7924.565127440111,1449.868255837948,10847.659212071803,12081.319043793565,0.0,0.0,0.0,0.0,174.92,171.93,175.17,175.4,175.53,Open
131,7213.757302016891,826.7239721684423,10191.903733242005,13198.503935158722,0.0,0.0,0.0,0.0,174.92,171.93,175.17,175.4,175.53,Open
132,6692.425214341309,1082.4055769926997,9740.756123156089,16358.52651101667,0.0,0.0,0.0,0.0,174.92,171.93,175.17,175.4,175.53,Open
133,7154.055792576765,1916.2374038979297,10189.847372752116,17047.049647217947,0.0,0.0,0.0,0.0,174.92,171.93,175.17,175.4,175.53,Open
134,7751.316756167025,2070.866772039744,10714.487518607082,14796.184277079616,0.0,0.0,0.0,0.0,174.92,171.93,175.17,175.4,175.53,Open
135,7921.078255305083,1452.058726794568,10853.805941797013,12053.647584157896,0.0,0.0,0.0,0.0,174.92,171.93,175.17,175.4,175.53,Open
136,7217.043008451821,834.8153036612634,10197.692835055928,13157.421428849868,0.0,0.0,0.0,0.0,174.92,171.93,175.17,175.4,175.53,Open
137,6681.472859558208,1066.7593558739848,9702.02055001504,16308.19038250332,0.0,0.0,0.0,0.0,174.9,171.92,175.13,175.38,175.53,Open
138,7140.577690670216,1898.4677670559608,10142.796950673694,17050.98355424208,0.0,0.0,0.0,0.0,174.9,171.92,175.13,175.38,175.53,Open
139,7762.604387116956,2073.4372226521045,10705.792690013968,14871.643766360732,0.0,0.0,0.0,0.0,174.9,171.92,175.13,175.38,175.53,Open
140,7955.187017343881,1467.414375235364,10866.837008814457,12102.843773704026,0.0,0.0,0.0,0.0,174.9,171.92,175.13,175.38,175.53,Open
141,7279.516134204404,877.9988739489168,10252.49931246034,13207.04230154065,0.0,0.0,0.0,0.0,174.9,171.92,175.13,175.38,175.53,Open
142,6738.067476519046,1119.665934999697,9767.17588510226,16349.272888812173,0.0,0.0,0.0,0.0,174.9,171.92,175.13,175.38,175.53,Open
143,7135.593251656682,1899.808871723279,10153.05640137868,17028.810623742418,0.0,0.0,0.0,0.0,174.9,171.92,175.13,175.38,175.53,Open
144,7711.396540569847,2050.4372776075934,10711.492384850071,14795.826649168332,0.0,0.0,0.0,0.0,174.9,171.92,175.13,175.38,175.53,Open
145,7922.732284394776,1458.6524914088836,10892.809735871522,12097.76992771267,0.0,0.0,0.0,0.0,174.9,171.92,175.13,175.38,175.53,Open
146,7261.679442129069,858.5081527838889,10210.366274162088,13174.296995913624,0.0,0.0,0.0,0.0,174.9,171.92,175.13,175.38,175.53,Open
147,6758.631081417929,1120.850577455828,9758.68222220924,16375.223264124785,0.0,0.0,0.0,0.0,174.9,171.92,175.13,175.38,175.53,Open
148,7170.75254568488,1923.3005551458068,10166.1992271184,17118.843450408396,0.0,0.0,0.0,0.0,174.9,171.92,175.13,175.38,175.53,Open
149,7721.991267441663,2047.4421438505824,10665.716012205605,14838.429074100146,0.0,0.0,0.0,0.0,174.9,171.92,175.13,175.38,175.53,Open
150,7904.537964408156,1426.153054970867,10852.174264451774,12057.894415604404,0.0,0.0,0.0,0.0,174.9,171.92,175.13,175.38,175.53,Open
151,7186.264656336864,797.7114078654538,10214.635457353052,13084.465334947748,0.0,0.0,0.0,0.0,174.9,171.92,175.13,175.38,175.53,Open
152,6665.625472739395,1064.4124227061775,9735.92814635374,16241.470425304226,0.0,0.0,0.0,0.0,174.9,171.92,175.13,175.38,175.53,Open
153,7148.825484374223,1936.3539739077064,10173.307081855188,17056.392676400268,0.0,0.0,0.0,0.0,174.84,172.03,175.15,175.27,175.39,Open
154,7798.814213134553,2131.1717785801625,10703.825736501902,14931.702903712145,0.0,0.0,0.0,0.0,174.84,172.03,175.15,175.27,175.39,Open
155,7987.529991570711,1500.7855297071374,10868.62514837088,12167.46266692432,0.0,0.0,0.0,0.0,174.84,172.03,175.15,175.27,175.39,Open
156,7249.944776290033,833.0048123603837,10214.724864330872,13184.154115218416,0.0,0.0,0.0,0.0,174.84,172.03,175.15,175.27,175.39,Open
157,6684.89267645987,1043.1559137291806,9720.617201401854,16276.897940265888,0.0,0.0,0.0,0.0,174.84,172.03,175.15,175.27,175.39,Open
158,7103.473794874406,1864.8954468840896,10121.898069607982,17033.392731355754,0.0,0.0,0.0,0.0,174.84,172.03,175.15,175.27,175.39,Open
159,7709.362531824414,2048.4032688621605,10659.077544102376,14855.729324308557,0.0,0.0,0.0,0.0,174.84,172.03,175.15,175.27,175.39,Open
160,7921.592345427555,1463.279302511132,10840.23843291264,12097.457003290298,0.0,0.0,0.0,0.0,174.84,172.03,175.15,175.27,175.39,Open
161,7234.656183082603,833.1836263160261,10214.031960252758,13148.167806645371,0.0,0.0,0.0,0.0,174.84,172.03,175.15,175.27,175.39,Open
162,6662.764449449116,1024.0451722198932,9704.345131438393,16238.341181080485,0.0,0.0,0.0,0.0,174.84,172.03,175.15,175.27,175.39,Open
163,7108.88291703259,1876.071319111743,10137.611345960064,17060.840673546874,0.0,0.0,0.0,0.0,174.84,172.03,175.15,175.27,175.39,Open
164,7762.805552817053,2113.6033074382917,10720.45543437665,14895.42602246118,0.0,0.0,0.0,0.0,174.84,172.03,175.15,175.27,175.39,Open
165,8022.666933854453,1552.8874460324582,10926.180890343296,12182.125411287,0.0,0.0,0.0,0.0,174.84,172.03,175.15,175.27,175.39,Open
166,7319.25753584594,906.9443830185394,10274.739298193372,13221.302714503136,0.0,0.0,0.0,0.0,174.84,172.03,175.15,175.27,175.39,Open
167,6756.015927316657,1104.1314726032583,9770.394536303824,16340.600411963513,0.0,0.0,0.0,0.0,174.84,172.03,175.15,175.27,175.39,Open
168,7169.165571828553,1906.8049677377903,10178.96207320238,17136.47897678363,0.0,0.0,0.0,0.0,174.84,172.03,175.15,175.27,175.39,Open
169,7726.975706455196,2057.992167233487,10689.766489239511,14917.956580872127,0.0,0.0,0.0,0.0,174.84,172.03,175.15,175.27,175.39,Open
170,7901.028740528673,1441.9780900452245,10815.09272040042,12117.35005585552,0.0,0.0,0.0,0.0,174.79,171.98,175.19,175.3,175.52,Open
171,7210.292781626318,816.1963005299928,10163.517017783764,13119.512870253668,0.0,0.0,0.0,0.0,174.79,171.98,175.19,175.3,175.52,Open
172,6717.436816386798,1078.9634083465826,9732.642439918807,16277.83671353301,0.0,0.0,0.0,0.0,174.79,171.98,175.19,175.3,175.52,Open
173,7163.42117350354,1926.1392266916307,10175.162276644978,17124.029055122024,0.0,0.0,0.0,0.0,174.79,171.98,175.19,175.3,175.52,Open
174,7751.160293955839,2091.877411827733,10691.35346309584,14946.186834119182,0.0,0.0,0.0,0.0,174.79,171.98,175.19,175.3,175.52,Open
175,7957.869226678518,1490.637837724428,10885.232494501171,12145.803826547126,0.0,0.0,0.0,0.0,174.79,171.98,175.19,175.3,175.52,Open
176,7260.919482817589,854.4624870374784,10234.372047707087,13122.060969121572,0.0,0.0,0.0,0.0,174.79,171.98,175.19,175.3,175.52,Open
177,6730.1773107263225,1080.662140925186,9740.934937111728,16271.645280318891,0.0,0.0,0.0,0.0,174.79,171.98,175.19,175.3,175.52,Open
178,7148.266690762841,1908.906031716589,10138.773636671738,17132.67918022623,0.0,0.0,0.0,0.0,174.79,171.98,175.19,175.3,175.52,Open
179,7756.904692280852,2102.338028232816,10687.039576415966,14981.167314191738,0.0,0.0,0.0,0.0,174.79,171.98,175.19,175.3,175.52,Open
180,7964.19477035937,1505.4570442982963,10867.552264637026,12164.244015722754,0.0,0.0,0.0,0.0,174.79,171.98,175.19,175.3,175.52,Open
181,7250.749439090424,843.1972078320036,10226.101902258624,13138.98123967424,0.0,0.0,0.0,0.0,174.79,171.98,175.19,175.3,175.52,Open
182,6685.004435182147,1040.4513526500884,9713.6434571318,16230.003980398653,0.0,0.0,0.0,0.0,174.79,171.98,175.19,175.3,175.52,Open
183,7122.428074172506,1880.8322406807235,10128.447130733388,17111.400319504777,0.0,0.0,0.0,0.0,174.79,171.98,175.19,175.3,175.52,Open
184,7726.86394773292,2075.27006569744,10670.25341633003,14973.612424565845,0.0,0.0,0.0,0.0,174.79,171.98,175.19,175.3,175.52,Open
185,7916.943182580851,1461.7593838881712,10831.230679897151,12193.971835848311,0.0,0.0,0.0,0.0,174.79,171.98,175.19,175.3,175.52,Open
186,7192.5454965288045,789.6200763726326,10168.34499458611,13116.830660919031,0.0,0.0,0.0,0.0,174.89,172.11,175.29,175.36,175.59,Open
187,6686.189077638278,1034.5057886249767,9720.706608379676,16217.710520948234,0.0,0.0,0.0,0.0,174.89,172.11,175.29,175.36,175.59,Open
188,7131.994620799377,1904.435682825528,10138.661877949462,17130.39930229179,0.0,0.0,0.0,0.0,174.89,172.11,175.29,175.36,175.59,Open
189,7762.738497583688,2123.058095342886,10713.951076740155,15030.11763454886,0.0,0.0,0.0,0.0,174.89,172.11,175.29,175.36,175.59,Open
190,7975.348290842568,1519.7845124941484,10905.058491833031,12212.032045368202,0.0,0.0,0.0,0.0,174.89,172.11,175.29,175.36,175.59,Open
191,7215.031351450843,816.0174865743503,10173.955282444393,13118.21646907526,0.0,0.0,0.0,0.0,174.89,172.11,175.29,175.36,175.59,Open
192,6651.499170243642,1006.1861284001028,9681.099317204871,16157.494921385638,0.0,0.0,0.0,0.0,174.89,172.11,175.29,175.36,175.59,Open
193,7126.160815496542,1888.7000547289915,10147.088485609112,17091.32845298391,0.0,0.0,0.0,0.0,174.89,172.11,175.29,175.36,175.59,Open
194,7775.031957034106,2126.99200236702,10709.12309993781,15048.423713257756,0.0,0.0,0.0,0.0,174.89,172.11,175.29,175.36,175.59,Open
195,8022.041085009705,1557.5589606236174,10914.06624484852,12414.672960600015,0.0,0.0,0.0,0.0,174.89,172.11,175.29,175.36,175.59,Open
196,7284.835849384767,869.5722662892659,10247.112542046612,13291.844820004086,0.0,0.0,0.0,0.0,174.89,172.11,175.29,175.36,175.59,Open
197,6696.157955665345,1037.813846804362,9727.88151834983,16135.679618797258,0.0,0.0,0.0,0.0,174.89,172.11,175.29,175.36,175.59,Open
198,7106.938315264978,1862.9284933720223,10112.040950303191,16946.176224491148,0.0,0.0,0.0,0.0,174.89,172.11,175.29,175.36,175.59,Open
199,7739.20211067225,2089.5528304043805,10678.434154800672,15030.385855482324,0.0,0.0,0.0,0.0,174.89,172.11,175.29,175.36,175.59,Open
200,7969.760354728742,1527.3170503755869,10884.986625312164,12574.15265728863,0.0,0.0,0.0,0.0,174.89,172.11,175.29,175.36,175.59,Open
201,7248.916596045089,853.3001963258024,10243.603318167128,13386.2585885833,0.0,0.0,0.0,0.0,174.89,172.11,175.29,175.36,175.59,Open
202,6671.839257697971,1022.7040675525748,9755.59768147441,15966.365154548306,0.0,0.0,0.0,0.0,174.89,172.11,175.29,175.36,175.59,Open
203,7074.908265460524,1854.613644434648,10152.363497300566,16714.16511704506,0.0,0.0,0.0,0.0,174.89,172.11,175.29,175.36,175.59,Open
204,7716.38097958338,2094.514917673459,10703.624570801803,15016.63953264231,0.0,0.0,0.0,0.0,174.89,172.11,175.29,175.36,175.59,Open
205,7954.382354543491,1526.5347393196512,10899.58231444148,12794.406747151226,0.0,0.0,0.0,0.0,174.89,172.11,175.29,175.36,175.59,Open
206,7209.309304870285,812.1729865280374,10216.892983543035,13479.085383306192,0.0,0.0,0.0,0.0,174.89,172.11,175.29,175.36,175.59,Open
207,6606.348646443921,960.7003284335528,9670.370479866324,15774.87775979969,0.0,0.0,0.0,0.0,174.89,172.11,175.29,175.36,175.59,Open
208,7018.000724077311,1796.7673297843137,10065.75048753625,16480.07529736463,0.0,0.0,0.0,0.0,174.89,172.11,175.29,175.36,175.59,Open
209,7698.790156697054,2074.957141275065,10670.029898885476,14980.943796747184,0.0,0.0,0.0,0.0,174.89,172.11,175.29,175.36,175.59,Open
210,7991.665064294943,1559.6823763468717,10912.702788436744,12943.157606501294,0.0,0.0,0.0,0.0,174.89,172.11,175.29,175.36,175.59,Open
211,7283.382985995172,882.9833129624502,10279.254350573345,13579.64588161062,0.0,0.0,0.0,0.0,174.67,172.16,175.1,175.04,174.95,Open
212,6724.812892057049,1059.1597627591805,9799.407100606812,15802.54921943536,0.0,0.0,0.0,0.0,174.67,172.16,175.1,175.04,174.95,Open
213,7099.7410535503695,1869.9245893865336,10132.805720902172,16481.46110552086,0.0,0.0,0.0,0.0,174.67,172.16,175.1,175.04,174.95,Open
214,7722.594764541956,2087.7199873590457,10663.793762182446,14986.82230553893,0.0,0.0,0.0,0.0,174.67,172.16,175.1,175.04,174.95,Open
215,7959.366793557024,1517.862262470992,10880.58333165447,13005.966008420708,0.0,0.0,0.0,0.0,174.67,172.16,175.1,175.04,174.95,Open
216,7216.975953218455,817.023315074839,10208.64518983903,13555.997735976904,0.0,0.0,0.0,0.0,174.67,172.16,175.1,175.04,174.95,Open
217,6647.162931819312,989.824651458818,9696.164392967748,15701.854610664202,0.0,0.0,0.0,0.0,174.67,172.16,175.1,175.04,174.95,Open
218,7074.796506738247,1842.0296123063104,10108.66583689044,16459.86932037703,0.0,0.0,0.0,0.0,174.67,172.16,175.1,175.04,174.95,Open
219,7718.236174373171,2099.745225876001,10690.9734834401,15035.303239262492,0.0,0.0,0.0,0.0,174.67,172.16,175.1,175.04,174.95,Open
220,7973.940130941884,1554.4297163998745,10914.15565182634,13044.72393330621,0.0,0.0,0.0,0.0,174.67,172.16,175.1,175.04,174.95,Open
221,7259.712488617002,864.3866615756348,10244.586794923163,13599.31541673129,0.0,0.0,0.0,0.0,174.67,172.16,175.1,175.04,174.95,Open
222,6661.55745524853,1003.9956574434826,9703.898096549285,15683.570883699762,0.0,0.0,0.0,0.0,174.67,172.16,175.1,175.04,174.95,Open
223,7049.561387248205,1820.6389928625813,10081.508467377242,16406.58276159558,0.0,0.0,0.0,0.0,174.67,172.16,175.1,175.04,174.95,Open
224,7729.747322767655,2102.874470099744,10694.661521275226,15073.658832747798,0.0,0.0,0.0,0.0,174.67,172.16,175.1,175.04,174.95,Open
225,8000.605762077065,1564.0409665156565,10939.860157949945,13102.480840978724,0.0,0.0,0.0,0.0,174.67,172.16,175.1,175.04,174.95,Open
226,7278.197381281541,865.6160075206766,10262.870521887604,13633.491234003452,0.0,0.0,0.0,0.0,174.67,172.16,175.1,175.04,174.95,Open
227,6679.774126979605,1016.7138000385524,9726.316896237957,15693.91974138257,0.0,0.0,0.0,0.0,175.23,172.22,175.23,175.01,175.46,Open
228,7066.615768267605,1842.968385573433,10103.547287410174,16410.494316875258,0.0,0.0,0.0,0.0,175.23,172.22,175.23,175.01,175.46,Open
229,7724.852290731942,2100.885164843221,10703.401053357253,15026.16137578027,0.0,0.0,0.0,0.0,175.23,172.22,175.23,175.01,175.46,Open
230,8000.695169054887,1576.9826265552792,10945.962184186244,13123.06679762206,0.0,0.0,0.0,0.0,175.23,172.22,175.23,175.01,175.46,Open
231,7284.008834839921,881.9774844619614,10250.46530371491,13662.481446561987,0.0,0.0,0.0,0.0,175.23,172.22,175.23,175.01,175.46,Open
232,6681.56226653603,999.3017911078682,9697.10316623487,15683.973215099955,0.0,0.0,0.0,0.0,175.23,172.22,175.23,175.01,175.46,Open
233,7056.646890240538,1818.046190505766,10081.28494993269,16385.974453207786,0.0,0.0,0.0,0.0,175.23,172.22,175.23,175.01,175.46,Open
234,7716.068055161007,2097.2641822414616,10706.68675979218,15041.002934098597,0.0,0.0,0.0,0.0,175.23,172.22,175.23,175.01,175.46,Open
235,7984.378395602513,1579.1954492563546,10951.348954599973,13107.130003825429,0.0,0.0,0.0,0.0,175.23,172.22,175.23,175.01,175.46,Open
236,7301.890230404167,911.0124005094052,10287.166868110522,13664.001365184948,0.0,0.0,0.0,0.0,175.23,172.22,175.23,175.01,175.46,Open
237,6719.292011176588,1052.7448121005073,9754.927129140751,15750.804931021326,0.0,0.0,0.0,0.0,175.23,172.22,175.23,175.01,175.46,Open
238,7061.608977509615,1851.0373653217991,10096.305322206656,16445.698314392368,0.0,0.0,0.0,0.0,175.23,172.22,175.23,175.01,175.46,Open
239,7676.9301506197635,2091.31861821635,10659.34576503584,15047.730809179642,0.0,0.0,0.0,0.0,175.23,172.22,175.23,175.01,175.46,Open
240,7948.325031796102,1558.0730507460894,10914.82620416,13117.322399297049,0.0,0.0,0.0,0.0,175.23,172.22,175.23,175.01,175.46,Open
241,7238.880662784656,869.5499145448107,10256.924957862491,13630.116120590705,0.0,0.0,0.0,0.0,175.23,172.22,175.23,175.01,175.46,Open
242,6671.79455420906,1030.2366054340132,9740.756123156089,15676.686546407527,0.0,0.0,0.0,0.0,175.23,172.22,175.23,175.01,175.46,Open
243,7055.864579184602,1862.9061416275672,10134.079770336124,16421.178450724896,0.0,0.0,0.0,0.0,175.23,172.22,175.23,175.01,175.46,Open
244,7646.107095015895,2079.338083188305,10644.928889862167,15018.651189643288,0.0,0.0,0.0,0.0,175.46,172.0,175.13,175.03,175.15,Open
245,7895.4631561593,1514.218928124777,10834.739903776635,13078.20684650026,0.0,0.0,0.0,0.0,175.46,172.0,175.13,175.03,175.15,Open
246,7216.506566584893,840.2914810528138,10217.563535876696,13623.07532108728,0.0,0.0,0.0,0.0,175.46,172.0,175.13,175.03,175.15,Open
247,6683.596275281463,1030.3260124118344,9751.194387816717,15698.166572829075,0.0,0.0,0.0,0.0,175.46,172.0,175.13,175.03,175.15,Open
248,7054.456419283917,1865.9012753845784,10112.33152298111,16431.192032240873,0.0,0.0,0.0,0.0,175.46,172.0,175.13,175.03,175.15,Open
249,7667.810638881999,2107.903612602188,10711.671198805714,15078.88914095034,0.0,0.0,0.0,0.0,175.46,172.0,175.13,175.03,175.15,Open
250,7933.4387699888675,1563.6386351154608,10937.893204437876,13174.431106380356,0.0,0.0,0.0,0.0,175.46,172.0,175.13,175.03,175.15,Open
251,7253.655165869613,867.247684865914,10230.147568005032,13643.1695393526,0.0,0.0,0.0,0.0,175.46,172.0,175.13,175.03,175.15,Open
252,6701.142394678878,1029.1190182112475,9740.644364433809,15647.718685593449,0.0,0.0,0.0,0.0,175.46,172.0,175.13,175.03,175.15,Open
253,7055.797523951236,1842.0296123063104,10093.913685549938,16408.30384591864,0.0,0.0,0.0,0.0,175.46,172.0,175.13,175.03,175.15,Open
254,7649.951595062208,2071.64908309568,10625.929907075157,15066.729791966653,0.0,0.0,0.0,0.0,175.46,172.0,175.13,175.03,175.15,Open
255,7918.463101203812,1537.8223702695811,10879.353985709427,13145.954983944295,0.0,0.0,0.0,0.0,175.46,172.0,175.13,175.03,175.15,Open
256,7207.252944380396,836.6481467065987,10233.008591295313,13623.187079809555,0.0,0.0,0.0,0.0,175.46,172.0,175.13,175.03,175.15,Open
257,6611.578954646463,961.8849708896842,9687.49191611909,15570.471056755909,0.0,0.0,0.0,0.0,175.46,172.0,175.13,175.03,175.15,Open
258,6990.888058053024,1797.5496408402494,10055.669850786908,16314.851202351,0.0,0.0,0.0,0.0,175.46,172.0,175.13,175.03,175.15,Open
259,7648.118752016873,2096.9736095635426,10661.983270881568,15070.79780945752,0.0,0.0,0.0,0.0,175.46,172.0,175.13,175.03,175.15,Open
260,7952.996546387261,1600.6531239334497,10918.022503617109,13202.080214271571,0.0,0.0,0.0,0.0,175.46,172.0,175.13,175.03,175.15,Open
261,7307.500518262448,927.2621187284136,10302.768385740326,13704.681540093608,0.0,0.0,0.0,0.0,175.46,172.0,175.13,175.03,175.15,Open
262,6747.209340001266,1054.1976754901025,9786.286626611549,15707.241381077933,0.0,0.0,0.0,0.0,175.46,172.0,175.13,175.03,175.15,Open
263,7090.912114490523,1862.4144032495503,10128.603592944572,16412.975360509798,0.0,0.0,0.0,0.0,175.46,172.0,175.13,175.03,175.15,Open
264,7684.440336756747,2098.381769464227,10669.35934655182,15123.145594971847,0.0,0.0,0.0,0.0,175.46,172.0,175.13,175.03,175.15,Open
265,7942.826502660097,1552.7309838212711,10913.216878559218,13257.95957540984,0.0,0.0,0.0,0.0,175.46,172.0,175.13,175.03,175.15,Open
266,7221.267488153874,840.5149984973668,10301.784908984291,13648.17633011059,0.0,0.0,0.0,0.0,175.46,172.0,175.13,175.03,175.15,Open
267,6674.655577499339,1005.336762110801,9810.828842023471,15563.78788516377,0.0,0.0,0.0,0.0,175.46,172.0,175.13,175.03,175.15,Open
268,7040.933613888456,1823.298850452763,10063.381202623988,16326.407054234392,0.0,0.0,0.0,0.0,175.17,171.85,175.28,175.58,174.04,Open
269,7667.52006620408,2101.354551476783,10616.743340104023,15110.092176209948,0.0,0.0,0.0,0.0,175.17,171.85,175.28,175.58,174.04,Open
270,7971.637901262988,1602.597725701061,10897.548305696047,13306.30639866667,0.0,0.0,0.0,0.0,175.17,171.85,175.28,175.58,174.04,Open
271,7287.9203901196,905.2009469510256,10283.65764423104,13723.278191480422,0.0,0.0,0.0,0.0,175.17,171.85,175.28,175.58,174.04,Open
272,6675.326129832999,1011.2152709025468,9748.780399415542,15528.159204502012,0.0,0.0,0.0,0.0,175.17,171.85,175.28,175.58,174.04,Open
273,7005.506098926795,1806.892670022568,10091.544400637677,16310.961998815776,0.0,0.0,0.0,0.0,175.17,171.85,175.28,175.58,174.04,Open
274,7609.941972487209,2055.9358067435987,10634.1106455458,15052.69289644872,0.0,0.0,0.0,0.0,175.17,171.85,175.28,175.58,174.04,Open
275,7948.19092132937,1581.117699279511,10892.876791104887,13264.598043513066,0.0,0.0,0.0,0.0,175.17,171.85,175.28,175.58,174.04,Open
276,7303.164279838119,921.6071273812208,10297.202801370957,13754.324764528845,0.0,0.0,0.0,0.0,175.17,171.85,175.28,175.58,174.04,Open
277,6706.618572070429,1040.0713729943482,9788.208876634702,15591.03466165479,0.0,0.0,0.0,0.0,175.17,171.85,175.28,175.58,174.04,Open
278,7025.779131147759,1825.3775626871063,10074.132391706991,16310.537315671125,0.0,0.0,0.0,0.0,175.17,171.85,175.28,175.58,174.04,Open
279,7622.704818571189,2049.3420421292835,10612.29534295742,15108.192277931248,0.0,0.0,0.0,0.0,175.17,171.85,175.28,175.58,174.04,Open
280,7898.905324805418,1534.737829534749,10869.563921638004,13300.897276508484,0.0,0.0,0.0,0.0,175.17,171.85,175.28,175.58,174.04,Open
281,7216.461863095983,850.3944695466125,10244.139760034055,13671.80212399985,0.0,0.0,0.0,0.0,175.17,171.85,175.28,175.58,174.04,Open
282,6681.003472924647,1007.9742679565272,9766.326518812955,15531.891945826048,0.0,0.0,0.0,0.0,175.17,171.85,175.28,175.58,174.04,Open
283,7051.707154715915,1840.5096936833493,10124.200299286878,16330.318609514072,0.0,0.0,0.0,0.0,175.17,171.85,175.28,175.58,174.04,Open
284,7690.318845548492,2119.615926696769,10702.194059156664,15163.222272780213,0.0,0.0,0.0,0.0,175.17,171.85,175.28,175.58,174.04,Open
285,7992.380320117512,1623.8765864225134,10978.46162062426,13385.74449846083,0.0,0.0,0.0,0.0,175.04,171.72,175.12,175.36,173.28,Open
286,7291.496669232449,900.3282666597685,10317.408778358553,13732.554165429374,0.0,0.0,0.0,0.0,175.04,171.72,175.12,175.36,173.28,Open
287,6669.000586152147,977.8664681752286,9738.856224877383,15508.221448447875,0.0,0.0,0.0,0.0,175.04,171.72,175.12,175.36,173.28,Open
288,6989.5693051301605,1774.6838062624702,10047.355001849532,16278.999004244686,0.0,0.0,0.0,0.0,175.04,171.72,175.12,175.36,173.28,Open
289,7609.226716664639,2053.857094509255,10608.003808022,15105.800641274527,0.0,0.0,0.0,0.0,175.04,171.72,175.12,175.36,173.28,Open
290,7935.740999667764,1579.2848562341758,10905.661988933323,13343.11972178456,0.0,0.0,0.0,0.0,175.04,171.72,175.12,175.36,173.28,Open
291,7308.148718851652,933.5429589203547,10373.936340086024,13744.512348712964,0.0,0.0,0.0,0.0,175.04,171.72,175.12,175.36,173.28,Open
292,6724.611726356951,1053.3930126897112,9868.988081096182,15509.942532770936,0.0,0.0,0.0,0.0,175.04,171.72,175.12,175.36,173.28,Open
293,7021.5546514457055,1823.6788301085032,10077.3286911641,16282.93291126882,0.0,0.0,0.0,0.0,175.04,171.72,175.12,175.36,173.28,Open
294,7619.419112136258,2073.0125395074533,10607.355607432795,15154.393333720369,0.0,0.0,0.0,0.0,175.04,171.72,175.12,175.36,173.28,Open
295,7891.462193901801,1561.7834403256704,10918.000151872651,13359.302384770202,0.0,0.0,0.0,0.0,175.04,171.72,175.12,175.36,173.28,Open
296,7249.631851867659,876.7248245149642,10298.432147315998,13721.57945890182,0.0,0.0,0.0,0.0,175.04,171.72,175.12,175.36,173.28,Open
297,6710.977162239214,1007.4601778340552,9768.047603136016,15531.511966170308,0.0,0.0,0.0,0.0,175.04,171.72,175.12,175.36,173.28,Open
298,7032.127026573065,1815.8110160602355,10094.450127416863,16316.058196551588,0.0,0.0,0.0,0.0,175.04,171.72,175.12,175.36,173.28,Open
299,7655.383068964848,2100.1922607651068,10650.807398653911,15172.006508351147,0.0,0.0,0.0,0.0,175.04,171.72,175.12,175.36,173.28,Open
300,7954.3376510545795,1587.59970517155,10916.793157672068,13406.263399870802,0.0,0.0,0.0,0.0,175.04,171.72,175.12,175.36,173.28,Open
301,7235.438494138539,848.7180887124645,10258.69074567446,13719.746615856484,0.0,0.0,0.0,0.0,175.04,171.72,175.12,175.36,173.28,Open
302,6662.295062815555,972.3232355503126,9769.947501414716,15455.20311059989,0.0,0.0,0.0,0.0,174.96,171.86,175.26,175.42,173.17,Open
303,7040.3971720215295,1831.278423223308,10156.319756069155,16252.892166720889,0.0,0.0,0.0,0.0,174.96,171.86,175.26,175.42,173.17,Open
304,7675.589045952445,2130.545929735414,10678.948244923144,15167.558511204545,0.0,0.0,0.0,0.0,174.96,171.86,175.26,175.42,173.17,Open
305,8015.134395973015,1656.7336507718148,10971.443172865293,13492.563485212742,0.0,0.0,0.0,0.0,174.96,171.86,175.26,175.42,173.17,Open
306,7303.924239149599,910.99004876495,10322.303810394264,13800.101137173311,0.0,0.0,0.0,0.0,174.96,171.86,175.26,175.42,173.17,Open
307,6712.742950051183,1004.3532853547676,9822.094121228947,15484.327433625154,0.0,0.0,0.0,0.0,174.96,171.86,175.26,175.42,173.17,Open
308,7000.5440116577165,1789.5477163252494,10103.726101365815,16228.796986198067,0.0,0.0,0.0,0.0,174.96,171.86,175.26,175.42,173.17,Open
309,7623.084798226929,2077.862868054255,10625.549927419415,15152.895766841862,0.0,0.0,0.0,0.0,174.96,171.86,175.26,175.42,173.17,Open
310,7961.803133702652,1613.6171357175274,10927.41023628834,13486.77438339882,0.0,0.0,0.0,0.0,174.96,171.86,175.26,175.42,173.17,Open
311,7239.975898262965,865.1019173982046,10279.388461040076,13721.422996690631,0.0,0.0,0.0,0.0,174.96,171.86,175.26,175.42,173.17,Open
312,6610.662533123796,935.6216711546984,9706.982637284116,15370.80292353665,0.0,0.0,0.0,0.0,174.96,171.86,175.26,175.42,173.17,Open
313,6931.477121290818,1750.3204048061857,10029.518309774196,16153.181034705764,0.0,0.0,0.0,0.0,174.96,171.86,175.26,175.42,173.17,Open
314,7622.816577293465,2094.425510695637,10660.753924936524,15161.76940939062,0.0,0.0,0.0,0.0,174.96,171.86,175.26,175.42,173.17,Open
315,7976.354119343057,1638.2934615961865,10948.957317943254,13520.167889615046,0.0,0.0,0.0,0.0,174.96,171.86,175.26,175.42,173.17,Open
316,7312.775529953901,924.3563919492236,10328.383484886108,13830.410102654709,0.0,0.0,0.0,0.0,174.96,171.86,175.26,175.42,173.17,Open
317,6707.669104059828,1002.7663114984408,9797.060167439004,15446.95531689588,0.0,0.0,0.0,0.0,174.96,171.86,175.26,175.42,173.17,Open
318,7006.422520449462,1794.263934405319,10085.576484868108,16226.003018141151,0.0,0.0,0.0,0.0,175.24,172.03,175.37,175.49,173.03,Open
319,7612.735940544122,2075.784155819912,10627.33806697584,15158.595461677964,0.0,0.0,0.0,0.0,175.24,172.03,175.37,175.49,173.03,Open
320,7950.671964963909,1614.4888537512843,10932.171157857318,13514.825822690227,0.0,0.0,0.0,0.0,175.24,172.03,175.37,175.49,173.03,Open
321,7279.829058626778,901.8481852827292,10320.560374326751,13798.49181157253,0.0,0.0,0.0,0.0,175.24,172.03,175.37,175.49,173.03,Open
322,6686.099670660457,990.0705206478264,9794.377958104367,15436.986438868817,0.0,0.0,0.0,0.0,175.24,172.03,175.37,175.49,173.03,Open
323,6984.227238205343,1780.4058528430287,10089.3315779366,16192.318939247009,0.0,0.0,0.0,0.0,175.24,172.03,175.37,175.49,173.03,Open
324,7603.07998693943,2071.2691034399395,10639.05038107042,15150.817054607518,0.0,0.0,0.0,0.0,175.24,172.03,175.37,175.49,173.03,Open
325,7958.964462156829,1628.4139905469408,10976.181742689818,13528.370979830144,0.0,0.0,0.0,0.0,175.24,172.03,175.37,175.49,173.03,Open
326,7259.354860705717,896.0367317243496,10313.676037034516,13776.005956650491,0.0,0.0,0.0,0.0,175.24,172.03,175.37,175.49,173.03,Open
327,6631.516710700597,949.7032701615418,9717.286791478014,15344.249051123745,0.0,0.0,0.0,0.0,175.24,172.03,175.37,175.49,173.03,Open
328,6966.658767063471,1760.8480764446351,10035.374466821488,16145.179110190764,0.0,0.0,0.0,0.0,175.24,172.03,175.37,175.49,173.03,Open
329,7648.163455505783,2100.4604816985707,10679.574093767891,15205.57882852302,0.0,0.0,0.0,0.0,175.24,172.03,175.37,175.49,173.03,Open
330,7989.988683460794,1653.4479443368846,11004.79197559261,13602.869344099685,0.0,0.0,0.0,0.0,175.24,172.03,175.37,175.49,173.03,Open
331,7311.881460175688,930.1901972520589,10387.39209024812,13868.050440317444,0.0,0.0,0.0,0.0,175.24,172.03,175.37,175.49,173.03,Open
332,6711.960638995247,1003.5486225543764,9872.318491020023,15418.590953182096,0.0,0.0,0.0,0.0,175.24,172.03,175.37,175.49,173.03,Open
333,6989.390491174519,1786.217306401409,10138.326601782634,16150.610584093403,0.0,0.0,0.0,0.0,175.24,172.03,175.37,175.49,173.03,Open
334,7595.726263013633,2068.3186731718392,10625.572279163873,15143.820958593007,0.0,0.0,0.0,0.0,175.24,172.03,175.37,175.49,173.03,Open
335,7948.481494007289,1614.5112054957397,10930.986515401188,13569.654651839095,0.0,0.0,0.0,0.0,175.24,172.03,175.37,175.49,173.03,Open
336,7281.796012138845,905.4468161400338,10329.054037219768,13785.416041066175,0.0,0.0,0.0,0.0,175.24,172.03,175.37,175.49,173.03,Open
337,6707.758511037649,994.6302765167088,9807.565487333,15359.694106542363,0.0,0.0,0.0,0.0,175.24,172.03,175.37,175.49,173.03,Open
338,6996.341883700119,1778.148326653043,10083.453069144854,16158.590156863947,0.0,0.0,0.0,0.0,175.24,172.03,175.37,175.49,173.03,Open
339,7615.976943490142,2075.4265279086267,10637.239889769542,15165.591557692476,0.0,0.0,0.0,0.0,175.24,172.03,175.37,175.49,173.03,Open
340,7957.578654000599,1615.628792718505,10932.886413679887,13640.353219551233,0.0,0.0,0.0,0.0,175.24,172.03,175.37,175.49,173.03,Open
341,7260.271282228385,883.7209205294754,10300.734376994897,13822.274067672975,0.0,0.0,0.0,0.0,175.24,172.03,175.37,175.49,173.03,Open
342,6670.296987330555,964.3213110353126,9785.861943466896,15323.730149713774,0.0,0.0,0.0,0.0,175.24,172.03,175.37,175.49,173.03,Open
343,7001.594543647117,1779.2882656202637,10096.417080928932,16127.968266960175,0.0,0.0,0.0,0.0,175.35,171.74,175.21,175.24,172.92,Open
344,7661.261577756593,2110.6305254257354,10676.377794310783,15220.666256030352,0.0,0.0,0.0,0.0,175.35,171.74,175.21,175.24,172.92,Open
345,7995.509564341255,1657.404203105474,10965.944643729288,13659.016926171416,0.0,0.0,0.0,0.0,175.35,171.74,175.21,175.24,172.92,Open
346,7302.627837971192,915.1698249780924,10318.302848136766,13819.189526938144,0.0,0.0,0.0,0.0,175.35,171.74,175.21,175.24,172.92,Open
347,6717.459168131253,983.8343839447956,9784.230266121658,15325.428882292375,0.0,0.0,0.0,0.0,175.35,171.74,175.21,175.24,172.92,Open
348,7009.372950717563,1775.756689996325,10078.692147575874,16114.020778420065,0.0,0.0,0.0,0.0,175.35,171.74,175.21,175.24,172.92,Open
349,7634.215966965672,2085.082481513319,10629.57324142137,15203.76833722214,0.0,0.0,0.0,0.0,175.35,171.74,175.21,175.24,172.92,Open
350,7970.989700673784,1631.8114557041474,10943.54819578507,13620.013132096905,0.0,0.0,0.0,0.0,175.35,171.74,175.21,175.24,172.92,Open
351,7278.376195237183,897.7578160474081,10306.791699742282,13782.622073009265,0.0,0.0,0.0,0.0,175.35,171.74,175.21,175.24,172.92,Open
352,6701.924705734815,969.0598808598376,9773.479077038655,15301.177239558368,0.0,0.0,0.0,0.0,175.35,171.74,175.21,175.24,172.92,Open
353,7034.183387062953,1789.4583093474282,10091.05266225966,16141.893403755834,0.0,0.0,0.0,0.0,175.35,171.74,175.21,175.24,172.92,Open
354,7673.42092674028,2111.591650437313,10657.892901646246,15243.3979801414,0.0,0.0,0.0,0.0,175.35,171.74,175.21,175.24,172.92,Open
355,7980.042157178183,1637.3323365846084,10925.06330312053,13669.18696989858,0.0,0.0,0.0,0.0,175.35,171.74,175.21,175.24,172.92,Open
356,7273.347052734739,878.2000396490145,10282.473001774908,13788.567637034374,0.0,0.0,0.0,0.0,175.35,171.74,175.21,175.24,172.92,Open
357,6700.337731878488,956.7217179205082,9787.024234178572,15294.292902266134,0.0,0.0,0.0,0.0,175.35,171.74,175.21,175.24,172.92,Open
358,7010.825814107158,1766.6371782585595,10088.303397691656,16122.46973782417,0.0,0.0,0.0,0.0,175.35,171.74,175.21,175.24,172.92,Open
359,7675.611397696901,2118.2077667960843,10663.749058693536,15250.215262200269,0.0,0.0,0.0,0.0,175.35,171.74,175.21,175.24,172.92,Open
360,8038.335506717623,1688.271962198253,11000.902772057389,13707.207287217056,0.0,0.0,0.0,0.0,175.71,171.96,175.19,174.95,171.92,Open
361,7361.636443333202,945.9928805819608,10384.464011724474,13879.13690556728,0.0,0.0,0.0,0.0,175.71,171.96,175.19,174.95,171.92,Open
362,6756.597072672495,994.1385381386922,9797.484850583656,15345.143120901956,0.0,0.0,0.0,0.0,175.71,171.96,175.19,174.95,171.92,Open
363,7058.770305963792,1801.5506030977488,10104.396653699476,16160.735924331657,0.0,0.0,0.0,0.0,175.71,171.96,175.19,174.95,171.92,Open
364,7654.667813142278,2099.745225876001,10649.667459686692,15209.490383802698,0.0,0.0,0.0,0.0,175.71,171.96,175.19,174.95,171.92,Open
365,8006.327808657624,1663.0368427082117,10947.280937109106,13673.858484489738,0.0,0.0,0.0,0.0,175.71,171.96,175.19,174.95,171.92,Open
366,7329.695800506569,920.1989674805365,10330.037513975802,13829.091349731843,0.0,0.0,0.0,0.0,175.71,171.96,175.19,174.95,171.92,Open
367,6749.1986452577885,984.0579013893488,9799.228286651169,15314.610637976008,0.0,0.0,0.0,0.0,175.71,171.96,175.19,174.95,171.92,Open
368,7039.078419098666,1778.327140608685,10076.56873185262,16153.069275983487,0.0,0.0,0.0,0.0,175.71,171.96,175.19,174.95,171.92,Open
369,7661.865074856887,2097.353589219283,10651.96968936559,15249.790579055618,0.0,0.0,0.0,0.0,175.71,171.96,175.19,174.95,171.92,Open
370,7998.39293937599,1652.7103367698596,10945.939832441789,13644.93532716457,0.0,0.0,0.0,0.0,175.71,171.96,175.19,174.95,171.92,Open
371,7315.033056143887,898.0036852364166,10306.523478808818,13783.337328831833,0.0,0.0,0.0,0.0,175.71,171.96,175.19,174.95,171.92,Open
372,6739.967374797747,971.1609448386364,9802.46928959719,15310.3638065295,0.0,0.0,0.0,0.0,175.71,171.96,175.19,174.95,171.92,Open
373,7029.489520727339,1783.4233383444953,10066.979833481291,16162.792284821546,0.0,0.0,0.0,0.0,175.71,171.96,175.19,174.95,171.92,Open
374,7673.7562029071105,2123.192205809618,10624.633505896749,15267.448457175313,0.0,0.0,0.0,0.0,175.71,171.96,175.19,174.95,171.92,Open
375,8037.016753794761,1687.467299397862,10956.847483735975,13699.071252235324,0.0,0.0,0.0,0.0,175.91,171.85,174.95,174.85,172.04,Open
376,7356.204969430562,931.7771711083856,10331.445673876486,13817.937829248647,0.0,0.0,0.0,0.0,175.91,171.85,174.95,174.85,172.04,Open
377,6749.623328402439,974.8713344182175,9789.84055397994,15304.88762913795,0.0,0.0,0.0,0.0,175.91,171.85,174.95,174.85,172.04,Open
378,7002.153337258499,1747.8170094271911,10044.493978559254,16122.648551779814,0.0,0.0,0.0,0.0,175.91,171.85,174.95,174.85,172.04,Open
379,7663.586159179946,2103.299153244395,10645.867663129293,15236.535994593622,0.0,0.0,0.0,0.0,175.91,171.85,174.95,174.85,172.04,Open
380,8065.135248319537,1704.3428664616188,11009.12821401694,13714.449252420576,0.0,0.0,0.0,0.0,175.91,171.85,174.95,174.85,172.04,Open
381,7378.914341797154,948.5186277054104,10359.966499801458,13853.901786077236,0.0,0.0,0.0,0.0,175.91,171.85,174.95,174.85,172.04,Open
382,6770.075174579046,985.24254384548,9799.742376773642,15336.291830097656,0.0,0.0,0.0,0.0,175.91,171.85,174.95,174.85,172.04,Open
383,6989.47989815234,1732.6848784309482,10045.835083226571,16118.200554633208,0.0,0.0,0.0,0.0,175.91,171.85,174.95,174.85,172.04,Open
384,7627.063408739974,2070.755013317468,10621.750130862014,15213.737215249208,0.0,0.0,0.0,0.0,175.91,171.85,174.95,174.85,172.04,Open
385,8053.534692947232,1701.437139682429,10983.624873593437,13716.706778610562,0.0,0.0,0.0,0.0,175.91,171.85,174.95,174.85,172.04,Open
386,7412.866641624766,981.6662647326308,10369.331880728232,13881.886170135282,0.0,0.0,0.0,0.0,175.91,171.85,174.95,174.85,172.04,Open
387,6784.514401497174,998.1842038851028,9812.84049902445,15316.17526008788,0.0,0.0,0.0,0.0,175.91,171.85,174.95,174.85,172.04,Open
388,7026.114407314588,1766.4136608140066,10057.413286854422,16124.660208780791,0.0,0.0,0.0,0.0,175.91,171.85,174.95,174.85,172.04,Open
389,7659.115810288884,2106.0707695568526,10626.600459408815,15247.331887165534,0.0,0.0,0.0,0.0,175.91,171.85,174.95,174.85,172.04,Open
390,8051.903015601995,1702.7782443497474,10976.628777578924,13737.873880609735,0.0,0.0,0.0,0.0,175.91,171.85,174.95,174.85,172.04,Open
391,7391.788946603411,961.214418556025,10363.587482403218,13864.74238213806,0.0,0.0,0.0,0.0,175.91,171.85,174.95,174.85,172.04,Open
392,6780.871067150959,993.5573927828542,9815.299190914537,15313.98478913126,0.0,0.0,0.0,0.0,175.91,171.85,174.95,174.85,172.04,Open
393,7019.587697933638,1762.7479747233365,10060.587234567074,16131.790415262034,0.0,0.0,0.0,0.0,175.91,171.85,174.95,174.85,172.04,Open
394,7651.292699729526,2101.734531132523,10632.009581567,15240.58166034003,0.0,0.0,0.0,0.0,175.91,171.85,174.95,174.85,172.04,Open
395,8024.097445499593,1684.8297935521357,10953.941756956789,13688.007138729949,0.0,0.0,0.0,0.0,175.91,171.85,174.95,174.85,172.04,Open
396,7355.042678718887,932.6488891421424,10329.210499430956,13807.54426807693,0.0,0.0,0.0,0.0,175.91,171.85,174.95,174.85,172.04,Open
397,6741.420238187342,967.5623139813322,9790.488754569144,15239.620535328451,0.0,0.0,0.0,0.0,175.91,171.85,174.95,174.85,172.04,Open
398,6995.067834266167,1745.7159454483922,10031.4182080529,16097.346377056409,0.0,0.0,0.0,0.0,175.91,171.85,174.95,174.85,172.04,Open
399,7653.259653241594,2096.3924642077045,10602.751148075004,15262.486369906232,0.0,0.0,0.0,0.0,175.91,171.85,174.95,174.85,172.04,Open
400,8037.821416595151,1690.1718604769542,10946.319812097528,13718.494918166984,0.0,0.0,0.0,0.0,175.91,171.85,174.95,174.85,172.04,Open
401,7403.814185120366,966.3776715252008,10368.326052227743,13859.668536146706,0.0,0.0,0.0,0.0,175.87,171.81,174.91,174.75,171.5,Open
402,6804.161584873389,1009.762407512952,9839.841406326464,15281.530056182151,0.0,0.0,0.0,0.0,175.87,171.81,174.91,174.75,171.5,Open
403,7022.761645646292,1759.9987101553334,10066.130467191992,16123.073234924464,0.0,0.0,0.0,0.0,175.87,171.81,174.91,174.75,171.5,Open
404,7620.402588892292,2062.417812635638,10579.795906519405,15238.547651594596,0.0,0.0,0.0,0.0,175.87,171.81,174.91,174.75,171.5,Open
405,7998.974084731828,1651.3021768691751,10920.280029807094,13690.219961431025,0.0,0.0,0.0,0.0,175.87,171.81,174.91,174.75,171.5,Open
406,7349.79001877189,926.8821390726732,10331.825653532223,13788.366471334277,0.0,0.0,0.0,0.0,175.87,171.81,174.91,174.75,171.5,Open
407,6789.0518056216015,994.7196834945302,9821.89295552885,15266.397925185913,0.0,0.0,0.0,0.0,175.87,171.81,174.91,174.75,171.5,Open
408,7056.892759429546,1794.7109692944252,10106.229496744812,16158.366639419395,0.0,0.0,0.0,0.0,175.87,171.81,174.91,174.75,171.5,Open
409,7669.911702860797,2122.3651912647715,10662.519712748492,15296.818649389585,0.0,0.0,0.0,0.0,175.87,171.81,174.91,174.75,171.5,Open
410,8057.580358693643,1707.3156484741746,10978.439268879803,13775.268349083466,0.0,0.0,0.0,0.0,175.87,171.81,174.91,174.75,171.5,Open
411,7396.169888516652,955.4700202310112,10343.582671115715,13844.581108639371,0.0,0.0,0.0,0.0,175.87,171.81,174.91,174.75,171.5,Open
412,6792.136346356434,980.0345873873936,9804.659760553808,15259.044201260114,0.0,0.0,0.0,0.0,175.87,171.81,174.91,174.75,171.5,Open
413,7035.0104016078,1761.071593889188,10052.56295830762,16137.110130442396,0.0,0.0,0.0,0.0,175.87,171.81,174.91,174.75,171.5,Open
414,7679.500601232124,2120.04060984142,10632.300154244918,15292.303597009612,0.0,0.0,0.0,0.0,175.87,171.81,174.91,174.75,171.5,Open
415,8065.828152397651,1720.503177702806,10979.378042146927,13767.288776312922,0.0,0.0,0.0,0.0,175.87,171.81,174.91,174.75,171.5,Open
416,7397.108661783775,963.114316834726,10361.352307957686,13821.268239172488,0.0,0.0,0.0,0.0,175.87,171.81,174.91,174.75,171.5,Open
417,6779.90994213938,978.4252617866114,9820.23892643916,15213.737215249208,0.0,0.0,0.0,0.0,175.61,171.71,174.85,174.68,171.62,Open
418,6994.62079937706,1747.2135123268977,10058.08383918808,16072.647699433292,0.0,0.0,0.0,0.0,175.61,171.71,174.85,174.68,171.62,Open
419,7649.728077617655,2117.067827828864,10628.76857862098,15263.916881551371,0.0,0.0,0.0,0.0,175.61,171.71,174.85,174.68,171.62,Open
420,8077.138135092036,1723.9676980933784,10968.179818174818,13791.339253346832,0.0,0.0,0.0,0.0,175.61,171.71,174.85,174.68,171.62,Open
421,7397.667455395157,949.4574009725334,10334.127883211122,13808.43833785514,0.0,0.0,0.0,0.0,175.61,171.71,174.85,174.68,171.62,Open
422,6771.751555413193,969.9092471491392,9784.543190544033,15195.252322584667,0.0,0.0,0.0,0.0,175.61,171.71,174.85,174.68,171.62,Open
423,6983.757851571781,1738.8316081561577,9992.660283167395,16088.13745834082,0.0,0.0,0.0,0.0,175.61,171.71,174.85,174.68,171.62,Open
424,7659.473438200169,2117.671324929157,10590.457688624583,15296.841001134038,0.0,0.0,0.0,0.0,175.61,171.71,174.85,174.68,171.62,Open
425,8094.08075738916,1752.175599595976,10986.50824862817,13824.64335258524,0.0,0.0,0.0,0.0,175.61,171.71,174.85,174.68,171.62,Open
426,7436.179511091651,984.4825845339996,10383.636997179628,13882.199094557654,0.0,0.0,0.0,0.0,175.61,171.71,174.85,174.68,171.62,Open
427,6805.748558729716,978.7158344645304,9818.406083393822,15246.482520876232,0.0,0.0,0.0,0.0,175.61,171.71,174.85,174.68,171.62,Open
428,6983.132002727032,1714.0882270441327,10011.145175831936,16075.888702379312,0.0,0.0,0.0,0.0,175.61,171.71,174.85,174.68,171.62,Open
429,7614.658190567278,2071.380862162216,10581.449935609096,15243.845015030503,0.0,0.0,0.0,0.0,175.61,171.71,174.85,174.68,171.62,Open
430,8063.525922718754,1719.698514902415,10960.64728029338,13786.891256200226,0.0,0.0,0.0,0.0,175.61,171.71,174.85,174.68,171.62,Open
431,7453.524464788969,996.2396021174912,10406.324017801764,13892.637359218284,0.0,0.0,0.0,0.0,175.61,171.71,174.85,174.68,171.62,Open
432,6828.100303185022,1009.3153726238456,9848.71504887522,15254.573852369054,0.0,0.0,0.0,0.0,175.61,171.71,174.85,174.68,171.62,Open
433,7037.782017920258,1770.8616579606123,10066.42103986991,16138.942973487732,0.0,0.0,0.0,0.0,175.61,171.71,174.85,174.68,171.62,Open
434,7645.503597915602,2114.1844527941294,10635.71997114658,15278.333756725046,0.0,0.0,0.0,0.0,175.95,171.75,174.81,174.57,171.8,Open
435,8035.586242149621,1712.3447909766187,10945.73866674169,13752.380162761232,0.0,0.0,0.0,0.0,175.95,171.75,174.81,174.57,171.8,Open
436,7422.433188251637,973.2843605618908,10342.219214703944,13843.865852816803,0.0,0.0,0.0,0.0,175.95,171.75,174.81,174.57,171.8,Open
437,6814.622201278473,991.2328113595024,9810.5159176011,15227.550593322589,0.0,0.0,0.0,0.0,175.95,171.75,174.81,174.57,171.8,Open
438,7017.240764765831,1749.7169077058925,10019.75059744723,16102.062595136476,0.0,0.0,0.0,0.0,175.95,171.75,174.81,174.57,171.8,Open
439,7646.151798504806,2111.502243459492,10585.205028677588,15281.641814904431,0.0,0.0,0.0,0.0,175.95,171.75,174.81,174.57,171.8,Open
440,8035.362724705068,1713.7753026217583,10936.909727681845,13772.407325793189,0.0,0.0,0.0,0.0,175.95,171.75,174.81,174.57,171.8,Open
441,7381.171867987141,946.0375840708714,10339.84992979168,13796.882485971748,0.0,0.0,0.0,0.0,175.95,171.75,174.81,174.57,171.8,Open
442,6808.877802953459,978.5817239977983,9821.043589239547,15199.76737496464,0.0,0.0,0.0,0.0,175.95,171.75,174.81,174.57,171.8,Open
443,7051.662451227004,1766.7042334919256,10054.529911819687,16127.18595590424,0.0,0.0,0.0,0.0,175.95,171.75,174.81,174.57,171.8,Open
444,7656.6571183988,2114.050342327397,10591.999958992,15323.4172252914,0.0,0.0,0.0,0.0,175.95,171.75,174.81,174.57,171.8,Open
445,8068.59976871011,1738.205759311409,10974.058326966564,13817.870774015282,0.0,0.0,0.0,0.0,175.95,171.75,174.81,174.57,171.8,Open
446,7443.421476295171,993.535041038399,10414.974142905969,13877.035841588478,0.0,0.0,0.0,0.0,175.95,171.75,174.81,174.57,171.8,Open
447,6812.565840788584,986.7848142128962,9832.130054489382,15218.16286065136,0.0,0.0,0.0,0.0,175.95,171.75,174.81,174.57,171.8,Open
448,7000.521659913262,1733.467189486884,10002.092719327537,16077.252158791083,0.0,0.0,0.0,0.0,175.95,171.75,174.81,174.57,171.8,Open
449,7639.423923423758,2101.8239381103444,10569.178827903132,15291.856562120503,0.0,0.0,0.0,0.0,175.95,171.75,174.81,174.57,171.8,Open
450,8056.954509848894,1733.5789482091604,10964.581187317512,13818.675436815673,0.0,0.0,0.0,0.0,176.06,171.89,174.82,174.48,171.54,Open
451,7424.310734785883,983.0073693999492,10405.72052070147,13847.330373207376,0.0,0.0,0.0,0.0,176.06,171.89,174.82,174.48,171.54,Open
452,6794.170355101866,970.5797994827984,9859.75681063614,15167.983194349194,0.0,0.0,0.0,0.0,176.06,171.89,174.82,174.48,171.54,Open
453,6980.7627178147695,1724.7053056604036,10046.907966960429,16033.442739658683,0.0,0.0,0.0,0.0,176.06,171.89,174.82,174.48,171.54,Open
454,7635.355905932893,2107.635391668724,10596.202086949595,15267.02377403066,0.0,0.0,0.0,0.0,176.06,171.89,174.82,174.48,171.54,Open
455,8069.4044315105,1737.356393022107,10950.343126099484,13842.97178303859,0.0,0.0,0.0,0.0,176.06,171.89,174.82,174.48,171.54,Open
456,7444.650822240213,988.14827062467,10376.52914244284,13893.93376039669,0.0,0.0,0.0,0.0,176.06,171.89,174.82,174.48,171.54,Open
457,6820.724227514771,980.8839536766952,9824.642220096854,15203.969502922238,0.0,0.0,0.0,0.0,176.06,171.89,174.82,174.48,171.54,Open
458,6996.945380800412,1726.3593347500962,10004.909039128905,16070.7925046435,0.0,0.0,0.0,0.0,176.06,171.89,174.82,174.48,171.54,Open
459,7639.0662955124735,2106.0037143234867,10570.76580175946,15306.206382060813,0.0,0.0,0.0,0.0,176.06,171.89,174.82,174.48,171.54,Open
460,8075.081774602148,1752.4438205294396,10972.918387999343,13867.782219383982,0.0,0.0,0.0,0.0,176.06,171.89,174.82,174.48,171.54,Open
461,7437.833540181344,987.6788839911084,10395.170497318566,13854.102951777337,0.0,0.0,0.0,0.0,176.06,171.89,174.82,174.48,171.54,Open
462,6827.005067706713,984.5496397673656,9829.51490038811,15146.838444094474,0.0,0.0,0.0,0.0,176.06,171.89,174.82,174.48,171.54,Open
463,7008.143604772521,1731.164959807987,10003.70204492832,16054.31926897994,0.0,0.0,0.0,0.0,176.06,171.89,174.82,174.48,171.54,Open
464,7648.074048527962,2111.412836481671,10587.1496304452,15338.906984198928,0.0,0.0,0.0,0.0,176.06,171.89,174.82,174.48,171.54,Open
465,8057.133323804537,1740.82091341268,10972.717222299245,13869.50330370704,0.0,0.0,0.0,0.0,176.06,171.89,174.82,174.48,171.54,Open
466,7392.459498937071,962.0414331008712,10341.705124581473,13825.224497941075,0.0,0.0,0.0,0.0,176.06,171.89,174.82,174.48,171.54,Open
467,6770.924540868347,951.2008370400472,9820.37303690589,15108.214629675704,0.0,0.0,0.0,0.0,176.06,171.89,174.82,174.48,171.54,Open
468,6976.38177590153,1713.4847299438395,10031.708780730818,16027.877155289312,0.0,0.0,0.0,0.0,176.06,171.89,174.82,174.48,171.54,Open
469,7687.010787369108,2135.0162786264755,10590.23417118003,15358.978850719794,0.0,0.0,0.0,0.0,176.06,171.89,174.82,174.48,171.54,Open
470,8113.862051232106,1778.014216186311,10958.434457592304,13920.331170598409,0.0,0.0,0.0,0.0,176.06,171.89,174.82,174.48,171.54,Open
471,7473.618683054291,1007.2813638784128,10380.798325633805,13900.952208155655,0.0,0.0,0.0,0.0,176.06,171.89,174.82,174.48,171.54,Open
472,6843.835931281559,984.3037705783572,9829.447845154744,15157.43317096629,0.0,0.0,0.0,0.0,176.06,171.89,174.82,174.48,171.54,Open
473,6998.644113379016,1713.5517851772054,10004.059672839605,16036.169652482233,0.0,0.0,0.0,0.0,176.06,171.89,174.82,174.48,171.54,Open
474,7636.719362344666,2100.2146125095624,10562.003917932978,15301.154887813913,0.0,0.0,0.0,0.0,176.06,171.89,174.82,174.48,171.54,Open
475,8080.401489782512,1760.2222275998863,10938.630812004902,13876.208827043632,0.0,0.0,0.0,0.0,175.87,172.05,174.99,174.51,170.82,Open
476,7463.71686026059,1009.2483173904798,10384.821639635758,13862.50720769253,0.0,0.0,0.0,0.0,175.87,172.05,174.99,174.51,170.82,Open
477,6848.775666806182,992.7080264935526,9864.51773220512,15135.66257186682,0.0,0.0,0.0,0.0,175.87,172.05,174.99,174.51,170.82,Open
478,6987.71411034037,1707.5838694076383,9991.922675600372,16036.728446093612,0.0,0.0,0.0,0.0,175.87,172.05,174.99,174.51,170.82,Open
479,7612.199498677194,2074.9124377861544,10521.927240124613,15305.379367515969,0.0,0.0,0.0,0.0,175.87,172.05,174.99,174.51,170.82,Open
480,8028.567794390655,1714.9599450778896,10901.370453997904,13825.291553174444,0.0,0.0,0.0,0.0,175.87,172.05,174.99,174.51,170.82,Open
481,7433.877281412755,973.9996163844604,10356.457275921974,13849.3196784639,0.0,0.0,0.0,0.0,175.87,172.05,174.99,174.51,170.82,Open
482,6851.323765674087,981.7109682215416,9844.445865684256,15173.90640662985,0.0,0.0,0.0,0.0,175.87,172.05,174.99,174.51,170.82,Open
483,7012.39043621903,1723.3194975041745,10009.871126397984,16058.543748681994,0.0,0.0,0.0,0.0,175.87,172.05,174.99,174.51,170.82,Open
484,7678.539476220546,2138.927833906154,10602.997017264011,15360.163493175924,0.0,0.0,0.0,0.0,175.87,172.05,174.99,174.51,170.82,Open
485,8131.4305223739775,1809.865452035124,11008.591772150014,13953.814083792458,0.0,0.0,0.0,0.0,175.87,172.05,174.99,174.51,170.82,Open
486,7488.281427416972,1028.403762388678,10417.097558629222,13894.917237152726,0.0,0.0,0.0,0.0,175.87,172.05,174.99,174.51,170.82,Open
487,6849.937957517857,987.4777182910108,9853.900653588851,15141.719894614209,0.0,0.0,0.0,0.0,175.87,172.05,174.99,174.51,170.82,Open
488,6995.403110432996,1712.948288076912,9981.640873150933,16043.635135130304,0.0,0.0,0.0,0.0,175.87,172.05,174.99,174.51,170.82,Open
489,7641.659097869289,2109.9152696031656,10533.79601643038,15333.430806807375,0.0,0.0,0.0,0.0,175.87,172.05,174.99,174.51,170.82,Open
490,8090.817402698684,1774.3708818400958,10943.279974851606,13908.507097781552,0.0,0.0,0.0,0.0,175.87,172.05,174.99,174.51,170.82,Open
491,7459.514732302992,1000.2405643749912,10372.639938907616,13857.098085534346,0.0,0.0,0.0,0.0,175.8,171.89,174.93,174.53,170.94,Open
492,6844.6405940819495,975.8324594297958,9821.669438084298,15122.206821704724,0.0,0.0,0.0,0.0,175.8,171.89,174.93,174.53,170.94,Open
493,6991.826831320147,1707.4497589409066,9971.001442790204,16039.65652461726,0.0,0.0,0.0,0.0,175.8,171.89,174.93,174.53,170.94,Open
494,7659.339327733437,2125.8520633998,10571.19048490411,15360.990507720771,0.0,0.0,0.0,0.0,175.8,171.89,174.93,174.53,170.94,Open
495,8107.60356278462,1795.1580041835314,10989.861010296469,13931.909374226258,0.0,0.0,0.0,0.0,175.8,171.89,174.93,174.53,170.94,Open
496,7459.827656725366,1008.3095441233568,10411.084939370745,13843.016486527502,0.0,0.0,0.0,0.0,175.8,171.89,174.93,174.53,170.94,Open
497,6827.87678574047,972.077366361304,9870.105668318947,15095.094155680436,0.0,0.0,0.0,0.0,175.8,171.89,174.93,174.53,170.94,Open
498,6994.352578443597,1709.7966921087138,9993.844925623527,16045.69149562019,0.0,0.0,0.0,0.0,175.8,171.89,174.93,174.53,170.94,Open
499,7658.869941099876,2120.174720308152,10544.435446791107,15352.4744930833,0.0,0.0,0.0,0.0,175.8,171.89,174.93,174.53,170.94,Open
500,8108.676446518475,1793.3698646271068,10964.514132084149,13918.699493253172,0.0,0.0,0.0,0.0,175.8,171.89,174.93,174.53,170.94,Open
501,7494.67402633119,1014.076294192826,10408.715654458483,13883.517847480518,0.0,0.0,0.0,0.0,175.8,171.89,174.93,174.53,170.94,Open
502,6847.635727838961,962.086136589782,9830.18545272177,15126.051321751038,0.0,0.0,0.0,0.0,175.8,171.89,174.93,174.53,170.94,Open
503,6980.874476537047,1688.2049069648872,9973.504838169198,16051.547652667485,0.0,0.0,0.0,0.0,175.8,171.89,174.93,174.53,170.94,Open
504,7636.741714089122,2105.288458500917,10560.148723143187,15336.627106264486,0.0,0.0,0.0,0.0,175.8,171.89,174.93,174.53,170.94,Open
505,8099.199306869425,1782.7304342663806,10964.201207661774,13928.355446857864,0.0,0.0,0.0,0.0,175.8,171.89,174.93,174.53,170.94,Open
506,7488.0355582279635,1014.2327564040132,10398.903238642602,13878.1757805557,0.0,0.0,0.0,0.0,175.8,171.89,174.93,174.53,170.94,Open
507,6865.584178636573,979.8781251762064,9845.94343256276,15121.424510648789,0.0,0.0,0.0,0.0,175.8,171.89,174.93,174.53,170.94,Open
508,6991.044520264211,1701.2806774712417,9986.670015653375,16008.654655057748,0.0,0.0,0.0,0.0,176.2,171.82,174.87,174.5,171.26,Open
509,7630.684391341733,2107.635391668724,10560.551054543384,15331.4191498064,0.0,0.0,0.0,0.0,176.2,171.82,174.87,174.5,171.26,Open
510,8081.452021771911,1770.816954471702,10959.574396559525,13933.384589360308,0.0,0.0,0.0,0.0,176.2,171.82,174.87,174.5,171.26,Open
511,7482.8723052587875,1005.2920586218904,10408.760357947393,13869.100972306846,0.0,0.0,0.0,0.0,176.2,171.82,174.87,174.5,171.26,Open
512,6863.304300702132,973.306712306346,9848.916214575316,15108.684016309264,0.0,0.0,0.0,0.0,176.2,171.82,174.87,174.5,171.26,Open
513,6991.938590042423,1698.5537646476944,9976.321157970568,16039.41065542825,0.0,0.0,0.0,0.0,176.2,171.82,174.87,174.5,171.26,Open
514,7627.6222023513565,2104.617906167258,10561.288662110408,15327.84287069355,0.0,0.0,0.0,0.0,176.2,171.82,174.87,174.5,171.26,Open
515,8072.421917011967,1772.7392044948583,10991.246818452695,13887.89878939376,0.0,0.0,0.0,0.0,176.2,171.82,174.87,174.5,171.26,Open
516,7434.056095368397,979.4310902871002,10360.927624813035,13784.276102098956,0.0,0.0,0.0,0.0,176.2,171.82,174.87,174.5,171.26,Open
517,6843.366544647997,961.0579563448376,9805.106795442916,15066.55097801101,0.0,0.0,0.0,0.0,176.2,171.82,174.87,174.5,171.26,Open
518,7019.0065525778,1712.6800671434485,10000.237524537746,16066.970356341644,0.0,0.0,0.0,0.0,176.2,171.82,174.87,174.5,171.26,Open
519,7677.131316319861,2138.23492982804,10609.09904350031,15381.308243430643,0.0,0.0,0.0,0.0,176.2,171.82,174.87,174.5,171.26,Open
520,8113.124443665081,1802.9364112539783,11006.8483360825,13943.979316232124,0.0,0.0,0.0,0.0,176.2,171.82,174.87,174.5,171.26,Open
521,7478.916046490199,1001.112282408748,10408.179212591554,13829.448977643133,0.0,0.0,0.0,0.0,176.2,171.82,174.87,174.5,171.26,Open
522,6838.717381801293,941.4107729686228,9817.13203395987,15043.282812033036,0.0,0.0,0.0,0.0,176.2,171.82,174.87,174.5,171.26,Open
523,6991.804479575691,1691.2894476997194,9963.893588053415,16009.593428324872,0.0,0.0,0.0,0.0,176.2,171.82,174.87,174.5,171.26,Open
524,7680.014691354596,2141.610043240791,10585.652063566691,15382.269368442225,0.0,0.0,0.0,0.0,176.2,171.82,174.87,174.5,171.26,Open
525,8139.343039911157,1822.4494841634612,11007.585943649525,13990.314482487976,0.0,0.0,0.0,0.0,176.2,171.82,174.87,174.5,171.26,Open
526,7505.96165728112,1018.3901808727004,10438.376419350674,13875.717088665617,0.0,0.0,0.0,0.0,176.2,171.82,174.87,174.5,171.26,Open
527,6878.235265998276,969.1939913265696,9880.990967868682,15076.095172893429,0.0,0.0,0.0,0.0,176.2,171.82,174.87,174.5,171.26,Open
528,6984.495459138806,1683.4439853959068,9967.648681121907,16028.167727967231,0.0,0.0,0.0,0.0,176.2,171.82,174.87,174.5,171.26,Open
529,7650.420981695769,2120.509996474981,10543.51902526844,15396.507429660252,0.0,0.0,0.0,0.0,176.2,171.82,174.87,174.5,171.26,Open
530,8116.834833244662,1806.780911300291,10975.51119035616,13975.607034636383,0.0,0.0,0.0,0.0,176.2,171.82,174.87,174.5,171.26,Open
531,7494.897543775743,1012.399913358678,10417.2093173515,13855.60051865584,0.0,0.0,0.0,0.0,176.2,171.82,174.87,174.5,171.26,Open
532,6853.73775407526,953.8159911413182,9828.732589332174,15060.426600030256,0.0,0.0,0.0,0.0,176.2,171.82,174.87,174.5,171.26,Open
533,6982.304988182186,1679.3759679050409,9961.12197174096,16040.41648392874,0.0,0.0,0.0,0.0,176.27,172.01,175.09,174.59,170.39,Open
534,7629.387990163325,2104.059112555875,10540.65800197816,15365.125580445005,0.0,0.0,0.0,0.0,176.27,172.01,175.09,174.59,170.39,Open
535,8092.739652721841,1794.0627687052213,10959.440286092791,13944.0910749544,0.0,0.0,0.0,0.0,176.27,172.01,175.09,174.59,170.39,Open
536,7505.492270647558,1025.542739098399,10424.54068953284,13841.004829526524,0.0,0.0,0.0,0.0,176.27,172.01,175.09,174.59,170.39,Open
537,6869.518085660707,962.8460959012624,9830.207804466225,15057.207948828693,0.0,0.0,0.0,0.0,176.27,172.01,175.09,174.59,170.39,Open
538,6976.806459046181,1675.1291364585325,9961.390192674422,16019.092919718376,0.0,0.0,0.0,0.0,176.27,172.01,175.09,174.59,170.39,Open
539,7648.8116560949875,2121.9181563756656,10588.177810690142,15383.990452765282,0.0,0.0,0.0,0.0,176.27,172.01,175.09,174.59,170.39,Open
540,8106.865955217595,1805.4845101218832,10988.810478307068,13962.173636218744,0.0,0.0,0.0,0.0,176.27,172.01,175.09,174.59,170.39,Open
541,7509.29206720496,1020.9382797406054,10402.68068345555,13866.41876297221,0.0,0.0,0.0,0.0,176.27,172.01,175.09,174.59,170.39,Open
542,6860.778553578682,950.1950085395586,9813.4663478692,15046.657925445788,0.0,0.0,0.0,0.0,176.27,172.01,175.09,174.59,170.39,Open
543,6934.382848070008,1640.595691275083,9891.742156951685,15983.955977434634,0.0,0.0,0.0,0.0,176.27,172.01,175.09,174.59,170.39,Open
544,7610.9478009876975,2089.329312959828,10510.416091730129,15353.301507628144,0.0,0.0,0.0,0.0,176.27,172.01,175.09,174.59,170.39,Open
545,8082.770774694774,1780.919942965501,10949.40435283236,13925.047388678478,0.0,0.0,0.0,0.0,176.27,172.01,175.09,174.59,170.39,Open
546,7510.275543960995,1017.049076205382,10428.34048609024,13834.20989921211,0.0,0.0,0.0,0.0,176.27,172.01,175.09,174.59,170.39,Open
547,6897.658931929938,973.597284984265,9873.19020905378,15080.543170040031,0.0,0.0,0.0,0.0,176.27,172.01,175.09,174.59,170.39,Open
548,6983.534334127228,1685.209773207876,9955.914015282871,16035.879079804312,0.0,0.0,0.0,0.0,176.27,172.01,175.09,174.59,170.39,Open
549,7637.345211189415,2123.7286476765453,10548.592871259794,15372.211083437334,0.0,0.0,0.0,0.0,176.35,172.01,174.9,174.42,171.01,Open
550,8094.2148678558915,1801.6623618200256,10965.609367562458,13948.360258145363,0.0,0.0,0.0,0.0,176.35,172.01,174.9,174.42,171.01,Open
551,7505.894602047754,1014.791550015396,10408.335674802742,13821.536460105952,0.0,0.0,0.0,0.0,176.35,172.01,174.9,174.42,171.01,Open
552,6895.557867951139,961.0803080892932,9861.030860070094,15055.330402294449,0.0,0.0,0.0,0.0,176.35,172.01,174.9,174.42,171.01,Open
553,6957.248682647787,1657.9182932279462,9944.224052932746,16023.473861631615,0.0,0.0,0.0,0.0,176.35,172.01,174.9,174.42,171.01,Open
554,7619.307353413982,2107.389522479716,10529.862109406247,15366.936071745882,0.0,0.0,0.0,0.0,176.35,172.01,174.9,174.42,171.01,Open
555,8111.582173297665,1815.0957602376648,10963.620062305936,13967.448647910196,0.0,0.0,0.0,0.0,176.35,172.01,174.9,174.42,171.01,Open
556,7537.432913474192,1036.8974252816947,10435.87302397168,13869.302138006942,0.0,0.0,0.0,0.0,176.35,172.01,174.9,174.42,171.01,Open
557,6904.69973143336,970.9597791385388,9878.889903889883,15057.610280228888,0.0,0.0,0.0,0.0,176.35,172.01,174.9,174.42,171.01,Open
558,6980.338034670119,1676.8502207815911,9993.956684345803,16018.042387728978,0.0,0.0,0.0,0.0,176.35,172.01,174.9,174.42,171.01,Open
559,7618.681504569234,2105.8472521122994,10557.600624275285,15342.080931911582,0.0,0.0,0.0,0.0,176.35,172.01,174.9,174.42,171.01,Open
560,8095.868896945584,1802.7352455538803,10940.575413772514,13958.440894894708,0.0,0.0,0.0,0.0,176.35,172.01,174.9,174.42,171.01,Open
561,7524.245384245562,1033.4552566355774,10394.63405545164,13838.814358569904,0.0,0.0,0.0,0.0,176.35,172.01,174.9,174.42,171.01,Open
562,6900.2293825422985,971.0268343719048,9845.027011040094,15045.048599845006,0.0,0.0,0.0,0.0,176.35,172.01,174.9,174.42,171.01,Open
563,6982.103822482089,1671.8657817680578,9944.939308755316,16073.050030833489,0.0,0.0,0.0,0.0,176.35,172.01,174.9,174.42,171.01,Open
564,7628.60567910739,2114.318563260861,10532.231394318507,15405.00109255327,0.0,0.0,0.0,0.0,176.35,172.01,174.9,174.42,171.01,Open
565,8101.859164459606,1813.2405654478748,10952.757114500657,13977.641043381816,0.0,0.0,0.0,0.0,176.35,172.01,174.9,174.42,171.01,Open
566,7518.433930687182,1023.5757855863316,10415.309419072795,13835.707466090616,0.0,0.0,0.0,0.0,176.45,171.77,174.55,174.22,170.83,Open
567,6892.898010360958,957.4146219986228,9861.120267047914,15029.02239907055,0.0,0.0,0.0,0.0,176.45,171.77,174.55,174.22,170.83,Open
568,6956.265205891754,1649.9163687129462,9935.573927828542,16007.26884690152,0.0,0.0,0.0,0.0,176.45,171.77,174.55,174.22,170.83,Open
569,7604.59990556239,2090.7598246049674,10529.593888472782,15375.675603827907,0.0,0.0,0.0,0.0,176.45,171.77,174.55,174.22,170.83,Open
570,8086.279998574258,1794.755672783336,10985.860048038969,13958.61970885035,0.0,0.0,0.0,0.0,176.45,171.77,174.55,174.22,170.83,Open
571,7522.7254656226,1019.6642303066528,10467.768963309403,13809.86884950028,0.0,0.0,0.0,0.0,176.45,171.77,174.55,174.22,170.83,Open
572,6886.661873657928,949.0103660834272,9883.270845803125,14993.237256197604,0.0,0.0,0.0,0.0,176.45,171.77,174.55,174.22,170.83,Open
573,6953.47123783484,1654.8114007486583,9942.458265120777,16022.9821232536,0.0,0.0,0.0,0.0,176.45,171.77,174.55,174.22,170.83,Open
574,7630.773798319555,2124.443903499115,10552.07974339482,15413.00301706827,0.0,0.0,0.0,0.0,176.45,171.77,174.55,174.22,170.83,Open
575,8119.829967001673,1841.0237838058213,10990.799783563589,13977.28341547053,0.0,0.0,0.0,0.0,176.45,171.77,174.55,174.22,170.83,Open
576,7539.265756519528,1043.82646606284,10434.263698370898,13818.742492049038,0.0,0.0,0.0,0.0,176.45,171.77,174.55,174.22,170.83,Open
577,6885.812507368625,948.8539038722402,9845.809322096027,14999.048709755984,0.0,0.0,0.0,0.0,176.45,171.77,174.55,174.22,170.83,Open
578,6924.70454272086,1630.5150545257395,9897.084223876504,15980.916140188712,0.0,0.0,0.0,0.0,176.45,171.77,174.55,174.22,170.83,Open
579,7613.048864966496,2107.903612602188,10529.303315794865,15385.689185343885,0.0,0.0,0.0,0.0,176.45,171.77,174.55,174.22,170.83,Open
580,8121.506347835821,1835.5029029253608,11028.820100882069,13981.217322494664,0.0,0.0,0.0,0.0,176.45,171.77,174.55,174.22,170.83,Open
581,7527.955773825142,1034.72930606953,10448.792332266848,13789.908741701693,0.0,0.0,0.0,0.0,176.45,171.77,174.55,174.22,170.83,Open
582,6903.783309910693,951.4914097179663,9829.537252132566,15022.07100654495,0.0,0.0,0.0,0.0,176.47,171.9,174.68,174.22,170.7,Open
583,6962.277825150231,1650.5869210466053,9897.039520387592,16049.960678811156,0.0,0.0,0.0,0.0,176.47,171.9,174.68,174.22,170.7,Open
584,7617.608620835379,2108.9541445915875,10496.088623534277,15418.121566548536,0.0,0.0,0.0,0.0,176.47,171.9,174.68,174.22,170.7,Open
585,8104.340208094145,1823.522367897316,10953.293556367584,13984.570084162962,0.0,0.0,0.0,0.0,176.47,171.9,174.68,174.22,170.7,Open
586,7534.750704139556,1031.1530269566808,10431.223861124976,13814.182736180155,0.0,0.0,0.0,0.0,176.47,171.9,174.68,174.22,170.7,Open
587,6901.391673253975,948.7868486388742,9864.674194416308,14994.421898653734,0.0,0.0,0.0,0.0,176.47,171.9,174.68,174.22,170.7,Open
588,6962.009604216767,1653.0456129366892,9933.249346405191,16027.877155289312,0.0,0.0,0.0,0.0,176.47,171.9,174.68,174.22,170.7,Open
589,7634.41713266577,2127.0143541114758,10544.636612491204,15427.15167130848,0.0,0.0,0.0,0.0,176.47,171.9,174.68,174.22,170.7,Open
590,8119.628801301576,1844.0189175628327,10984.049556738086,13995.634197668338,0.0,0.0,0.0,0.0,176.47,171.9,174.68,174.22,170.7,Open
591,7532.582584927391,1033.7458293134964,10435.247175126931,13806.001997709513,0.0,0.0,0.0,0.0,176.47,171.9,174.68,174.22,170.7,Open
592,6895.155536550944,946.4399154710668,9857.454580957245,14979.3344711464,0.0,0.0,0.0,0.0,176.47,171.9,174.68,174.22,170.7,Open
593,6932.684115491405,1639.5228075412283,9915.211488629757,16004.854858500346,0.0,0.0,0.0,0.0,176.47,171.9,174.68,174.22,170.7,Open
594,7584.93037044172,2103.1203392887523,10563.27796736693,15379.341289918577,0.0,0.0,0.0,0.0,176.47,171.9,174.68,174.22,170.7,Open
595,8067.281015787246,1806.3115246667296,10980.965016003254,13942.526452842529,0.0,0.0,0.0,0.0,176.47,171.9,174.68,174.22,170.7,Open
596,7495.791613553955,985.7789857124072,10363.05104053629,13739.438502721609,0.0,0.0,0.0,0.0,176.47,171.9,174.68,174.22,170.7,Open
597,6901.03404534269,933.4759036869888,9852.961880321727,14971.82428500942,0.0,0.0,0.0,0.0,176.47,171.9,174.68,174.22,170.7,Open
598,6967.7316507973255,1649.826961735125,9933.472863849744,16038.851861816867,0.0,0.0,0.0,0.0,176.47,171.9,174.68,174.22,170.7,Open
599,7628.516272129568,2119.66063018568,10523.536565725395,15437.880508647027,0.0,0.0,0.0,0.0,176.47,171.9,174.68,174.22,170.7,Open
600,8123.518004836799,1845.3823739746065,10986.17297246134,13990.470944699162,0.0,0.0,0.0,0.0,176.47,171.9,174.68,174.22,170.7,Open
601,7545.926576367209,1038.01501250446,10469.870027288203,13777.145895617712,0.0,0.0,0.0,0.0,176.47,171.9,174.68,174.22,170.7,Open
602,6892.473327216307,935.5769676657876,9873.704299176252,14976.5852065784,0.0,0.0,0.0,0.0,176.47,171.9,174.68,174.22,170.7,Open
603,6941.736571995803,1633.890167938491,9910.562325783054,16029.508832634549,0.0,0.0,0.0,0.0,176.47,171.9,174.68,174.22,170.7,Open
604,7623.777702305044,2125.650897699701,10540.970926400534,15435.4441685014,0.0,0.0,0.0,0.0,176.47,171.9,174.68,174.22,170.7,Open
605,8136.459664876422,1862.5932172051928,11002.445042424804,14020.377578780364,0.0,0.0,0.0,0.0,176.47,171.9,174.68,174.22,170.7,Open
606,7575.095602881384,1057.371623202756,10466.316099919808,13845.385771439764,0.0,0.0,0.0,0.0,176.47,171.9,174.68,174.22,170.7,Open
607,6922.916403164435,950.3514707507456,9881.52740973561,14987.44815438368,0.0,0.0,0.0,0.0,176.36,171.88,174.77,174.14,168.81,Open
608,6934.427551558919,1624.8377114340915,9907.76835772614,16015.561344094438,0.0,0.0,0.0,0.0,176.36,171.88,174.77,174.14,168.81,Open
609,7600.442481093703,2104.282630000428,10514.953495854556,15415.774633380728,0.0,0.0,0.0,0.0,176.36,171.88,174.77,174.14,168.81,Open
610,8117.550089067232,1850.165647288042,11007.004798293689,14004.239619283631,0.0,0.0,0.0,0.0,176.36,171.88,174.77,174.14,168.81,Open
611,7550.6651461917345,1044.4076114186778,10476.664957602616,13785.192523621625,0.0,0.0,0.0,0.0,176.36,171.88,174.77,174.14,168.81,Open
612,6899.514126719729,933.1406275201592,9868.943377607273,14942.118816628315,0.0,0.0,0.0,0.0,176.36,171.88,174.77,174.14,168.81,Open
613,6926.962068910846,1617.439284019385,9901.286351834102,16010.398091125262,0.0,0.0,0.0,0.0,176.36,171.88,174.77,174.14,168.81,Open
614,7612.870051010854,2112.3292580043385,10541.283850822909,15444.2954593057,0.0,0.0,0.0,0.0,176.36,171.88,174.77,174.14,168.81,Open
615,8131.855205518628,1858.502847969872,11032.731656161744,14034.43682604275,0.0,0.0,0.0,0.0,176.36,171.88,174.77,174.14,168.81,Open
616,7542.998497843564,1034.237567691513,10472.149905222645,13774.217817094066,0.0,0.0,0.0,0.0,176.36,171.88,174.77,174.14,168.81,Open
617,6887.041853313667,921.0930372587488,9848.156255263835,14929.91476415572,0.0,0.0,0.0,0.0,176.36,171.88,174.77,174.14,168.81,Open
618,6918.602516484561,1609.3256007821085,9870.262130530136,16015.159012694245,0.0,0.0,0.0,0.0,176.36,171.88,174.77,174.14,168.81,Open
619,7583.857486707865,2095.096063029297,10486.969111796512,15408.599723410574,0.0,0.0,0.0,0.0,176.36,171.88,174.77,174.14,168.81,Open
620,8106.12834765057,1847.394030975584,10979.534504358116,13993.220209267163,0.0,0.0,0.0,0.0,176.36,171.88,174.77,174.14,168.81,Open
621,7589.557181543968,1071.363815231778,10497.832059601791,13820.396521138731,0.0,0.0,0.0,0.0,176.36,171.88,174.77,174.14,168.81,Open
622,6933.779350969715,953.2571975299356,9903.208601857255,14967.800971007464,0.0,0.0,0.0,0.0,176.36,171.88,174.77,174.14,168.81,Open
623,6946.56454879815,1634.8512929500691,9929.561308570064,16034.582678625904,0.0,0.0,0.0,0.0,176.36,171.88,174.77,174.14,168.81,Open
624,7623.241260438116,2130.121246590763,10543.831949690812,15456.186587355924,0.0,0.0,0.0,0.0,176.54,171.69,174.73,174.26,169.38,Open
625,8142.427580645988,1875.9372086450112,11020.169975777862,14034.593288253938,0.0,0.0,0.0,0.0,176.54,171.69,174.73,174.26,169.38,Open
626,7566.199608588173,1064.3006639839011,10524.631801203705,13772.049697881905,0.0,0.0,0.0,0.0,176.54,171.69,174.73,174.26,169.38,Open
627,6886.103080046544,926.9044908171286,9919.324209609536,14908.121813311796,0.0,0.0,0.0,0.0,176.54,171.69,174.73,174.26,169.38,Open
628,6895.915495862424,1594.0817110635892,9873.90546487635,15977.116343631307,0.0,0.0,0.0,0.0,176.54,171.69,174.73,174.26,169.38,Open
629,7609.673751553745,2122.923984876154,10507.532716695396,15434.52774697873,0.0,0.0,0.0,0.0,176.54,171.69,174.73,174.26,169.38,Open
630,8127.518967094299,1875.266656311352,10992.096184741997,14028.245392828632,0.0,0.0,0.0,0.0,176.54,171.69,174.73,174.26,169.38,Open
631,7549.994593858075,1041.6136433617644,10467.16546620911,13788.075898656358,0.0,0.0,0.0,0.0,176.54,171.69,174.73,174.26,169.38,Open
632,6891.847478371558,921.8529965702292,9878.3311102785,14953.853482467352,0.0,0.0,0.0,0.0,176.54,171.69,174.73,174.26,169.38,Open
633,6900.184679053388,1606.665743191927,9892.412709285343,16036.728446093612,0.0,0.0,0.0,0.0,176.54,171.69,174.73,174.26,169.38,Open
634,7597.335588614415,2126.880243644744,10551.722115483535,15451.827997187138,0.0,0.0,0.0,0.0,176.54,171.69,174.73,174.26,169.38,Open
635,8108.899963963028,1871.757432431869,11002.601504635992,13994.941293590224,0.0,0.0,0.0,0.0,176.54,171.69,174.73,174.26,169.38,Open
636,7554.800218915966,1052.118963255759,10444.612556053706,13749.697953426596,0.0,0.0,0.0,0.0,176.54,171.69,174.73,174.26,169.38,Open
637,6907.60545821255,932.2689094864024,9864.115400804923,14956.20041563516,0.0,0.0,0.0,0.0,176.54,171.69,174.73,174.26,169.38,Open
638,6910.578240225106,1618.5792229866056,9897.710072721253,16054.162806768752,0.0,0.0,0.0,0.0,176.54,171.69,174.73,174.26,169.38,Open
639,7587.053786164974,2124.734476177034,10502.03418755939,15449.39165704151,0.0,0.0,0.0,0.0,176.54,171.69,174.73,174.26,169.38,Open
640,8087.866972430584,1853.3842984896064,10943.011753918145,13965.459342653674,0.0,0.0,0.0,0.0,176.33,171.68,174.68,174.34,169.63,Open
641,7497.915029277209,1005.3591138552564,10410.302628314808,13690.80110678686,0.0,0.0,0.0,0.0,176.33,171.68,174.68,174.34,169.63,Open
642,6846.607547594017,882.245705395425,9828.978458521184,14863.41832440118,0.0,0.0,0.0,0.0,176.33,171.68,174.68,174.34,169.63,Open
643,6917.0825978616,1615.9417171408793,9913.266886862146,16061.784751628013,0.0,0.0,0.0,0.0,176.33,171.68,174.68,174.34,169.63,Open
644,7620.179071447739,2151.0648311453856,10548.235243348508,15506.366253658089,0.0,0.0,0.0,0.0,176.33,171.68,174.68,174.34,169.63,Open
645,8138.001935243838,1899.697113001003,11006.289542471117,14031.553451008018,0.0,0.0,0.0,0.0,176.33,171.68,174.68,174.34,169.63,Open
646,7591.613542033857,1081.4891554700323,10495.015739800425,13765.05360186739,0.0,0.0,0.0,0.0,176.33,171.68,174.68,174.34,169.63,Open
647,6911.964048381335,934.66054614312,9881.728575435707,14911.586333702367,0.0,0.0,0.0,0.0,176.33,171.68,174.68,174.34,169.63,Open
648,6889.768766137215,1594.6852081638824,9874.374851509912,16015.024902227511,0.0,0.0,0.0,0.0,176.33,171.68,174.68,174.34,169.63,Open
649,7571.452268535169,2106.8530806127883,10490.590094398272,15448.58699424112,0.0,0.0,0.0,0.0,176.33,171.68,174.68,174.34,169.63,Open
650,8116.0525221887265,1878.0829761127209,10989.41397540736,14015.415491511283,0.0,0.0,0.0,0.0,176.33,171.68,174.68,174.34,169.63,Open
651,7591.50178331158,1078.2258007795574,10499.1284607802,13768.272253068955,0.0,0.0,0.0,0.0,176.33,171.68,174.68,174.34,169.63,Open
652,6914.534498993695,932.09009553076,9887.137697593893,14913.821508147896,0.0,0.0,0.0,0.0,176.33,171.68,174.68,174.34,169.63,Open
653,6897.03308308519,1603.6929611793712,9874.82188639902,16032.325152435918,0.0,0.0,0.0,0.0,176.33,171.68,174.68,174.34,169.63,Open
654,7591.971169945142,2125.740304677523,10484.331605950789,15493.514000596286,0.0,0.0,0.0,0.0,176.33,171.68,174.68,174.34,169.63,Open
655,8124.412074615011,1892.6339617531253,10977.679309568324,14032.738093464148,0.0,0.0,0.0,0.0,176.33,171.68,174.68,174.34,169.63,Open
656,7538.192872785673,1037.6350328487197,10424.25011685492,13688.409470130144,0.0,0.0,0.0,0.0,176.33,171.68,174.68,174.34,169.63,Open
657,6858.878655299981,882.9609612179948,9809.532440845063,14828.147271650703,0.0,0.0,0.0,0.0,176.33,171.68,174.68,174.34,169.63,Open
658,6870.83683858357,1581.8776585909914,9845.071714529004,16017.036559228489,0.0,0.0,0.0,0.0,176.33,171.68,174.68,174.34,169.63,Open
659,7594.6310275353235,2127.997830867509,10479.816553570814,15502.87938152306,0.0,0.0,0.0,0.0,176.33,171.68,174.68,174.34,169.63,Open
660,8129.240051417358,1894.3326943317288,10953.092390667483,14027.999523639624,0.0,0.0,0.0,0.0,176.33,171.68,174.68,174.34,169.63,Open
661,7592.574667045435,1080.7738996474625,10452.21214916851,13744.28883126841,0.0,0.0,0.0,0.0,176.33,171.68,174.68,174.34,169.63,Open
662,6929.3984090564745,939.4214677121006,9846.725743618696,14913.195659303148,0.0,0.0,0.0,0.0,176.33,171.68,174.68,174.34,169.63,Open
663,6901.011693598234,1600.630772188994,9835.95220279124,16046.049123531477,0.0,0.0,0.0,0.0,176.33,171.68,174.68,174.34,169.63,Open
664,7569.865294678842,2105.51197594547,10453.374439880186,15455.62779374454,0.0,0.0,0.0,0.0,176.33,171.68,174.68,174.34,169.63,Open
665,8095.511269034299,1874.976083633433,10977.679309568324,13993.44372671172,0.0,0.0,0.0,0.0,175.85,171.88,174.91,174.57,169.49,Open
666,7569.798239445477,1066.692300640619,10481.247065215954,13706.357920927754,0.0,0.0,0.0,0.0,175.85,171.88,174.91,174.57,169.49,Open
667,6937.623851016027,933.2747379868912,9847.753923863642,14883.221969988585,0.0,0.0,0.0,0.0,175.85,171.88,174.91,174.57,169.49,Open
668,6902.50926047674,1598.8426326325696,9816.84146128195,16038.69539960568,0.0,0.0,0.0,0.0,175.85,171.88,174.91,174.57,169.49,Open
669,7604.957533473675,2142.8170374413776,10463.052745229334,15505.360425157598,0.0,0.0,0.0,0.0,175.85,171.88,174.91,174.57,169.49,Open
670,8131.654039818531,1902.8934124581117,10952.153617400363,14030.748788207626,0.0,0.0,0.0,0.0,175.85,171.88,174.91,174.57,169.49,Open
671,7583.678672752223,1067.0946320408143,10451.809817768317,13694.511496366442,0.0,0.0,0.0,0.0,175.85,171.88,174.91,174.57,169.49,Open
672,6899.670588930916,904.8880225286512,9859.66740365832,14840.37367586776,0.0,0.0,0.0,0.0,175.85,171.88,174.91,174.57,169.49,Open
673,6866.612358881517,1565.9185130499022,9855.733496634186,16015.449585372162,0.0,0.0,0.0,0.0,175.85,171.88,174.91,174.57,169.49,Open
674,7576.637873248801,2118.4983394740034,10508.203269029054,15480.035898689735,0.0,0.0,0.0,0.0,175.85,171.88,174.91,174.57,169.49,Open
675,8148.171978971002,1922.8311685122453,11022.203984523296,14051.379448339874,0.0,0.0,0.0,0.0,175.85,171.88,174.91,174.57,169.49,Open
676,7621.207251692683,1107.2607168270013,10502.615332915228,13748.62506969274,0.0,0.0,0.0,0.0,175.85,171.88,174.91,174.57,169.49,Open
677,6924.592783998583,926.5245111613884,9862.729592648697,14906.445432477643,0.0,0.0,0.0,0.0,175.85,171.88,174.91,174.57,169.49,Open
678,6870.680376372383,1573.6298648869831,9842.23304298318,16046.116178764843,0.0,0.0,0.0,0.0,175.85,171.88,174.91,174.57,169.49,Open
679,7547.290032778983,2096.2360019965176,10462.44924812904,15469.485875306833,0.0,0.0,0.0,0.0,175.85,171.88,174.91,174.57,169.49,Open
680,8083.374271795067,1872.2268190654304,10960.870797737933,13998.696386658716,0.0,0.0,0.0,0.0,175.85,171.88,174.91,174.57,169.49,Open
681,7558.667070706734,1054.3541377012891,10460.21407368351,13668.13643790918,0.0,0.0,0.0,0.0,176.69,171.61,174.88,174.64,169.35,Open
682,6898.932981363891,901.9375922605506,9847.172778507804,14842.854719502297,0.0,0.0,0.0,0.0,176.69,171.61,174.88,174.64,169.35,Open
683,6915.652086216461,1609.3032490376531,9869.546874707565,16092.540751998516,0.0,0.0,0.0,0.0,176.69,171.61,174.88,174.64,169.35,Open
684,7620.469644125658,2160.676081261168,10513.277115020408,15546.957021588923,0.0,0.0,0.0,0.0,176.69,171.61,174.88,174.64,169.35,Open
685,8146.450894647944,1927.1897586810303,10989.928065529832,14062.912948478814,0.0,0.0,0.0,0.0,176.69,171.61,174.88,174.64,169.35,Open
686,7610.634876565323,1094.0955393428253,10491.528867665396,13723.345246713789,0.0,0.0,0.0,0.0,176.69,171.61,174.88,174.64,169.35,Open
687,6920.837690930091,917.0026680234276,9881.125078335415,14856.93631850914,0.0,0.0,0.0,0.0,176.69,171.61,174.88,174.64,169.35,Open
688,6866.701765859338,1571.6852631193717,9865.791781639076,16036.102597248864,0.0,0.0,0.0,0.0,176.69,171.61,174.88,174.64,169.35,Open
689,7560.321099796427,2121.56052846438,10476.061460502322,15489.289520894234,0.0,0.0,0.0,0.0,176.69,171.61,174.88,174.64,169.35,Open
690,8155.6151098746195,1942.2771861883623,10996.432423166329,14078.492114364162,0.0,0.0,0.0,0.0,176.69,171.61,174.88,174.64,169.35,Open
691,7610.500766098591,1096.3530655328111,10491.148888009657,13722.473528680031,0.0,0.0,0.0,0.0,176.69,171.61,174.88,174.64,169.35,Open
692,6912.008751870246,907.5255283743774,9871.67029043082,14824.5486407934,0.0,0.0,0.0,0.0,176.69,171.61,174.88,174.64,169.35,Open
693,6838.3597538900085,1553.3791844104749,9855.018240811616,15990.21446588212,0.0,0.0,0.0,0.0,176.69,171.61,174.88,174.64,169.35,Open
694,7531.688515149179,2107.389522479716,10533.617202474736,15473.553892797698,0.0,0.0,0.0,0.0,176.69,171.61,174.88,174.64,169.35,Open
695,8113.280905876269,1907.8554997271897,10976.7405363012,14042.237584857654,0.0,0.0,0.0,0.0,176.69,171.61,174.88,174.64,169.35,Open
696,7640.899138557808,1102.164519091191,10470.987614510968,13741.025476577935,0.0,0.0,0.0,0.0,176.69,171.61,174.88,174.64,169.35,Open
697,6978.482839880328,945.1435142926592,9908.930648437816,14909.23940053456,0.0,0.0,0.0,0.0,176.18,171.33,174.83,174.92,168.54,Open
698,6901.771652909715,1585.7221586373043,9865.94824385026,16075.218150045652,0.0,0.0,0.0,0.0,176.18,171.33,174.83,174.92,168.54,Open
699,7586.450289064681,2134.837464670833,10483.92927455059,15545.92884134398,0.0,0.0,0.0,0.0,176.18,171.33,174.83,174.92,168.54,Open
700,8135.207967186924,1932.2189011834744,10985.41301314986,14095.032405261089,0.0,0.0,0.0,0.0,176.18,171.33,174.83,174.92,168.54,Open
701,7616.491033612613,1105.3608185483,10524.36358027024,13741.472511467042,0.0,0.0,0.0,0.0,176.18,171.33,174.83,174.92,168.54,Open
702,6917.999019384268,914.3651621777012,9894.402014541867,14836.819748499363,0.0,0.0,0.0,0.0,176.18,171.33,174.83,174.92,168.54,Open
703,6870.345100205553,1564.510353149218,9845.630508140386,16032.302800691465,0.0,0.0,0.0,0.0,176.18,171.33,174.83,174.92,168.54,Open
704,7573.463925536147,2125.9414703776206,10478.78837332587,15529.008570791311,0.0,0.0,0.0,0.0,176.18,171.33,174.83,174.92,168.54,Open
705,8119.807615257218,1919.1878341660304,10968.112762941451,14099.636864618882,0.0,0.0,0.0,0.0,176.18,171.33,174.83,174.92,168.54,Open
706,7601.291847383005,1091.435681752644,10489.830135086791,13727.167395015646,0.0,0.0,0.0,0.0,176.18,171.33,174.83,174.92,168.54,Open
707,6924.279859576209,912.8228918102852,9895.027863386616,14836.618582799269,0.0,0.0,0.0,0.0,176.18,171.33,174.83,174.92,168.54,Open
708,6827.362695617998,1532.1003236890226,9840.04257202656,15976.758715720023,0.0,0.0,0.0,0.0,176.18,171.33,174.83,174.92,168.54,Open
709,7527.084055791385,2090.0669205268528,10453.329736391275,15466.535445038731,0.0,0.0,0.0,0.0,176.18,171.33,174.83,174.92,168.54,Open
710,8131.922260751994,1932.9565087505,10968.425687363826,14125.810757376046,0.0,0.0,0.0,0.0,176.18,171.33,174.83,174.92,168.54,Open
711,7631.310240186482,1119.7106384886074,10502.771795126417,13771.53560775943,0.0,0.0,0.0,0.0,176.18,171.33,174.83,174.92,168.54,Open
712,6945.625775531027,928.536168162366,9897.307741321058,14850.36490563928,0.0,0.0,0.0,0.0,176.18,171.33,174.83,174.92,168.54,Open
713,6867.282911215176,1557.6930710903491,9840.064923771017,16010.666312058724,0.0,0.0,0.0,0.0,176.18,171.33,174.83,174.92,168.54,Open
714,7568.278320822516,2128.8248454123554,10470.205303455032,15496.822058775671,0.0,0.0,0.0,0.0,176.18,171.33,174.83,174.92,168.54,Open
715,8128.860071761617,1942.0313169993544,10972.136076943409,14120.93807708479,0.0,0.0,0.0,0.0,176.08,171.43,174.86,175.0,168.28,Open
716,7612.0653882104625,1101.0022283795154,10493.540524666372,13770.775648447949,0.0,0.0,0.0,0.0,176.08,171.43,174.86,175.0,168.28,Open
717,6935.366324826041,909.8501097977291,9907.276619348124,14821.665265758666,0.0,0.0,0.0,0.0,176.08,171.43,174.86,175.0,168.28,Open
718,6852.843684297048,1543.9467482503353,9851.66547914332,15957.647974210737,0.0,0.0,0.0,0.0,176.08,171.43,174.86,175.0,168.28,Open
719,7546.127742067307,2106.830728868333,10463.1198004627,15490.608273817095,0.0,0.0,0.0,0.0,176.08,171.43,174.86,175.0,168.28,Open
720,8109.324647107679,1924.1052179461976,10969.207998419764,14127.04010332109,0.0,0.0,0.0,0.0,176.08,171.43,174.86,175.0,168.28,Open
721,7598.386120603815,1090.1169288297808,10481.291768704865,13732.755331129472,0.0,0.0,0.0,0.0,176.08,171.43,174.86,175.0,168.28,Open
722,6923.408141542452,898.8530515257182,9871.67029043082,14803.40389053868,0.0,0.0,0.0,0.0,176.08,171.43,174.86,175.0,168.28,Open
723,6863.192541979855,1544.5949488395393,9830.721894588696,15990.236817626575,0.0,0.0,0.0,0.0,176.08,171.43,174.86,175.0,168.28,Open
724,7581.287036095505,2131.37294428026,10477.089640747266,15530.17086150299,0.0,0.0,0.0,0.0,176.08,171.43,174.86,175.0,168.28,Open
725,8149.803656316239,1951.642567115136,10986.821173050545,14166.401525306885,0.0,0.0,0.0,0.0,176.08,171.43,174.86,175.0,168.28,Open
726,7640.675621113256,1121.498778045032,10519.200327301063,13779.425773552151,0.0,0.0,0.0,0.0,176.08,171.43,174.86,175.0,168.28,Open
727,6968.782182786726,929.4972931739442,9922.744026511196,14838.920812478163,0.0,0.0,0.0,0.0,176.08,171.43,174.86,175.0,168.28,Open
728,6848.082762728067,1523.2043293958104,9823.099949729438,15955.815131165402,0.0,0.0,0.0,0.0,176.08,171.43,174.86,175.0,168.28,Open
729,7559.874064907321,2104.7296648895344,10465.98082375298,15510.88130603806,0.0,0.0,0.0,0.0,176.08,171.43,174.86,175.0,168.28,Open
730,8126.535490338265,1932.330659905751,10978.036937479608,14162.914653171856,0.0,0.0,0.0,0.0,176.08,171.43,174.86,175.0,168.28,Open
731,7636.31703094447,1114.3462198193336,10515.065254576832,13782.756183475994,0.0,0.0,0.0,0.0,176.08,171.43,174.86,175.0,168.28,Open
732,6969.005700231279,925.8986623166396,9918.273677620136,14831.812957741377,0.0,0.0,0.0,0.0,176.08,171.43,174.86,175.0,168.28,Open
733,6856.755239576726,1529.9992597102237,9825.80451080853,15961.000735879034,0.0,0.0,0.0,0.0,176.08,171.43,174.86,175.0,168.28,Open
734,7509.381474182782,2068.0057487494646,10454.268509658395,15468.055363661691,0.0,0.0,0.0,0.0,176.08,171.43,174.86,175.0,168.28,Open
735,8048.773771378252,1896.165537377064,11011.385740206926,14092.014919759622,0.0,0.0,0.0,0.0,176.08,171.43,174.86,175.0,168.28,Open
736,7602.40943460577,1101.1586905907025,10516.875745877713,13711.163545985646,0.0,0.0,0.0,0.0,176.08,171.43,174.86,175.0,168.28,Open
737,7005.595505904616,937.8791973446844,9896.547782009577,14826.26972511646,0.0,0.0,0.0,0.0,176.08,171.43,174.86,175.0,168.28,Open
738,6898.731815663793,1552.552169865629,9831.32539168899,16009.9287044917,0.0,0.0,0.0,0.0,176.35,171.65,174.97,174.59,169.12,Open
739,7593.580495545923,2131.395296024716,10475.681480846582,15569.018193366312,0.0,0.0,0.0,0.0,176.35,171.65,174.97,174.59,169.12,Open
740,8160.577197143698,1955.0847357612536,11001.170992990852,14235.691933118336,0.0,0.0,0.0,0.0,176.35,171.65,174.97,174.59,169.12,Open
741,7654.958385820197,1121.1187983892917,10529.303315794865,13794.177924892656,0.0,0.0,0.0,0.0,176.35,171.65,174.97,174.59,169.12,Open
742,6978.125211969043,920.6907058585532,9909.66825600484,14827.23085012804,0.0,0.0,0.0,0.0,176.35,171.65,174.97,174.59,169.12,Open
743,6870.143934505455,1531.7873992666482,9844.937604062272,15957.089180599354,0.0,0.0,0.0,0.0,176.35,171.65,174.97,174.59,169.12,Open
744,7569.485315023103,2114.6538394276904,10465.377326652686,15525.49934691183,0.0,0.0,0.0,0.0,176.35,171.65,174.97,174.59,169.12,Open
745,8144.506292880332,1947.485142646449,10967.755135030167,14215.66477008638,0.0,0.0,0.0,0.0,176.35,171.65,174.97,174.59,169.12,Open
746,7660.032231811551,1127.8243217258837,10533.907775152657,13803.789175008438,0.0,0.0,0.0,0.0,176.35,171.65,174.97,174.59,169.12,Open
747,6970.145639198499,916.8238540677852,9907.72365423723,14798.777079436431,0.0,0.0,0.0,0.0,176.35,171.65,174.97,174.59,169.12,Open
748,6868.333443204576,1529.6416317989388,9817.13203395987,15947.857910139312,0.0,0.0,0.0,0.0,176.35,171.65,174.97,174.59,169.12,Open
749,7574.268588336538,2120.286479030428,10460.795219039348,15523.93472479996,0.0,0.0,0.0,0.0,176.35,171.65,174.97,174.59,169.12,Open
750,8136.459664876422,1946.2557967014072,10974.304196155572,14199.750328034204,0.0,0.0,0.0,0.0,176.35,171.65,174.97,174.59,169.12,Open
751,7651.89619682982,1123.5327867904648,10551.27508059443,13766.90879665718,0.0,0.0,0.0,0.0,176.35,171.65,174.97,174.59,169.12,Open
752,6984.651921349993,931.7548193639302,9987.45232670931,14765.137704031196,0.0,0.0,0.0,0.0,176.35,171.65,174.97,174.59,169.12,Open
753,6872.781440351181,1537.7106115473048,9851.66547914332,15940.68300016916,0.0,0.0,0.0,0.0,176.35,171.65,174.97,174.59,169.12,Open
754,7564.366765542837,2110.183490536629,10425.859442455703,15531.73548361486,0.0,0.0,0.0,0.0,176.35,171.65,174.97,174.59,169.12,Open
755,8129.150644439536,1941.941910021533,10959.239120392696,14226.23714521374,0.0,0.0,0.0,0.0,176.35,171.65,174.97,174.59,169.12,Open
756,7622.637763337822,1103.952658647616,10515.266420276932,13740.846662622293,0.0,0.0,0.0,0.0,176.24,171.51,174.65,174.32,169.54,Open
757,6930.359534068052,879.2505716384139,9886.690662704788,14735.588697861278,0.0,0.0,0.0,0.0,176.24,171.51,174.65,174.32,169.54,Open
758,6854.4977133867405,1506.6193350099725,9809.711254800708,15972.176608106687,0.0,0.0,0.0,0.0,176.24,171.51,174.65,174.32,169.54,Open
759,7582.717547740644,2122.476949987048,10473.826286056792,15569.711097444428,0.0,0.0,0.0,0.0,176.24,171.51,174.65,174.32,169.54,Open
760,8159.906644810038,1971.289750491351,11008.547068661102,14259.25067177423,0.0,0.0,0.0,0.0,176.24,171.51,174.65,174.32,169.54,Open
761,7675.298473274526,1141.74945852154,10563.859112722768,13807.700730288116,0.0,0.0,0.0,0.0,176.24,171.51,174.65,174.32,169.54,Open
762,6982.260284693276,916.153301734126,9946.772151800653,14772.849055868275,0.0,0.0,0.0,0.0,176.24,171.51,174.65,174.32,169.54,Open
763,6842.49482661424,1506.06054139859,9817.221440937692,15909.926999798656,0.0,0.0,0.0,0.0,176.24,171.51,174.65,174.32,169.54,Open
764,7552.185064814695,2102.94152533311,10445.171349665088,15524.851146322626,0.0,0.0,0.0,0.0,176.24,171.51,174.65,174.32,169.54,Open
765,8157.067973264215,1973.3014074923287,11005.395472692904,14237.591831397038,0.0,0.0,0.0,0.0,176.24,171.51,174.65,174.32,169.54,Open
766,7683.300397789526,1151.5171708485093,10567.368336602252,13790.311073101888,0.0,0.0,0.0,0.0,176.24,171.51,174.65,174.32,169.54,Open
767,6987.423537662451,913.1358162326594,9935.708038295274,14765.093000542283,0.0,0.0,0.0,0.0,176.24,171.51,174.65,174.32,169.54,Open
768,6854.587120364562,1505.9487826763134,9824.441054396755,15947.25441303902,0.0,0.0,0.0,0.0,176.24,171.51,174.65,174.32,169.54,Open
769,7540.830378631399,2096.459519441071,10454.715544547504,15507.64030309204,0.0,0.0,0.0,0.0,176.24,171.51,174.65,174.32,169.54,Open
770,8103.334379593656,1934.319965162273,10973.343071143994,14207.081700215544,0.0,0.0,0.0,0.0,176.24,171.51,174.65,174.32,169.54,Open
771,7658.758182377599,1125.6114990248084,10566.340156357308,13774.240168838522,0.0,0.0,0.0,0.0,176.24,171.51,174.65,174.32,169.54,Open
772,6999.918162812968,922.6800111150756,9959.445590906813,14791.579817721822,0.0,0.0,0.0,0.0,175.98,171.59,174.64,174.22,169.7,Open
773,6862.276120457187,1516.476454314763,9831.32539168899,15956.843311410346,0.0,0.0,0.0,0.0,175.98,171.59,174.64,174.22,169.7,Open
774,7568.166562100239,2120.867624386266,10477.559027380828,15540.139739530056,0.0,0.0,0.0,0.0,175.98,171.59,174.64,174.22,169.7,Open
775,8131.475225862888,1968.1828580120637,11039.928917876354,14212.870802029469,0.0,0.0,0.0,0.0,175.98,171.59,174.64,174.22,169.7,Open
776,7649.616318895379,1130.46182757161,10578.968891974557,13752.424866250143,0.0,0.0,0.0,0.0,175.98,171.59,174.64,174.22,169.7,Open
777,6981.165049214966,905.826795795774,9940.178387186335,14762.276680740915,0.0,0.0,0.0,0.0,175.98,171.59,174.64,174.22,169.7,Open
778,6818.936087958346,1489.2967330571096,9812.594629835445,15922.689845882636,0.0,0.0,0.0,0.0,175.98,171.59,174.64,174.22,169.7,Open
779,7530.995611071064,2096.683036885624,10435.671858271582,15530.237916736356,0.0,0.0,0.0,0.0,175.98,171.59,174.64,174.22,169.7,Open
780,8143.478112635388,1966.908808578111,10986.50824862817,14251.069933303588,0.0,0.0,0.0,0.0,175.98,171.59,174.64,174.22,169.7,Open
781,7709.362531824414,1163.1624297097242,10591.910552014178,13817.714311804097,0.0,0.0,0.0,0.0,175.98,171.59,174.64,174.22,169.7,Open
782,7020.5041194563055,934.66054614312,9978.131649271449,14801.83926842681,0.0,0.0,0.0,0.0,175.98,171.59,174.64,174.22,169.7,Open
783,6868.892236815958,1521.058561928101,9846.971612807703,15970.947262161644,0.0,0.0,0.0,0.0,175.98,171.59,174.64,174.22,169.7,Open
784,7564.567931242935,2117.358400506783,10480.330643693283,15555.920071115504,0.0,0.0,0.0,0.0,175.98,171.59,174.64,174.22,169.7,Open
785,8138.940708510961,1968.6969481345357,11021.108749044985,14233.657924372905,0.0,0.0,0.0,0.0,175.98,171.59,174.64,174.22,169.7,Open
786,7660.233397511649,1134.4180863401994,10571.458705837573,13745.71934291355,0.0,0.0,0.0,0.0,175.98,171.59,174.64,174.22,169.7,Open
787,6986.484764395329,908.732522574964,9954.438800148822,14757.404000449658,0.0,0.0,0.0,0.0,175.98,171.59,174.64,174.22,169.7,Open
788,6842.49482661424,1502.9536489193022,9844.177644750793,15933.016351820988,0.0,0.0,0.0,0.0,175.98,171.59,174.64,174.22,169.7,Open
789,7541.500930965059,2111.5692986928584,10474.876818046192,15534.2165272494,0.0,0.0,0.0,0.0,175.98,171.59,174.64,174.22,169.7,Open
790,8146.562653370221,1980.789241884857,11012.27980998514,14259.362430496509,0.0,0.0,0.0,0.0,175.98,171.59,174.64,174.22,169.7,Open
791,7684.797964668031,1155.1158017058135,10582.120487942757,13784.879599199248,0.0,0.0,0.0,0.0,175.98,171.59,174.64,174.22,169.7,Open
792,7007.048369294211,927.955022806528,9978.243407993725,14777.140590803694,0.0,0.0,0.0,0.0,175.98,171.59,174.64,174.22,169.7,Open
793,6864.198370480343,1520.7232857612714,9860.673232158808,15966.923948159689,0.0,0.0,0.0,0.0,175.98,171.59,174.64,174.22,169.7,Open
794,7558.443553262181,2121.828749397844,10479.950664037546,15574.159094591034,0.0,0.0,0.0,0.0,175.98,171.59,174.64,174.22,169.7,Open
795,8127.675429305485,1963.7572126099128,11000.70160635729,14253.506273449217,0.0,0.0,0.0,0.0,175.98,171.59,174.64,174.22,169.7,Open
796,7670.783420894554,1136.787371252462,10582.120487942757,13755.062372095868,0.0,0.0,0.0,0.0,175.98,171.59,174.64,174.22,169.7,Open
797,6978.080508480133,898.8306997812629,9964.20651247579,14724.636343078178,0.0,0.0,0.0,0.0,176.39,171.53,174.58,174.21,169.77,Open
798,6785.743747442216,1455.7914681186044,9802.826917508472,15893.274950179451,0.0,0.0,0.0,0.0,176.39,171.53,174.58,174.21,169.77,Open
799,7449.992889165032,2045.45283859406,10375.076279053244,15467.72008749486,0.0,0.0,0.0,0.0,176.39,171.53,174.58,174.21,169.77,Open
800,8088.939856164438,1943.014793755388,10952.019506933631,14203.214848424775,0.0,0.0,0.0,0.0,176.39,171.53,174.58,174.21,169.77,Open
801,7738.218633916215,1183.524868908509,10640.749113649024,13814.182736180155,0.0,0.0,0.0,0.0,176.39,171.53,174.58,174.21,169.77,Open
802,7055.663413484504,950.9773195954942,10030.83706269706,14788.78584966491,0.0,0.0,0.0,0.0,176.39,171.53,174.58,174.21,169.77,Open
803,6884.873734101503,1532.793227767137,9888.791726683585,15998.9763497086,0.0,0.0,0.0,0.0,176.39,171.53,174.58,174.21,169.77,Open
804,7574.916788925742,2136.960880394087,10528.185728572098,15606.27855137331,0.0,0.0,0.0,0.0,176.39,171.53,174.58,174.21,169.77,Open
805,8138.113693966115,1981.8621256187116,11049.8083889256,14263.072820076088,0.0,0.0,0.0,0.0,176.39,171.53,174.58,174.21,169.77,Open
806,7694.833897928464,1159.6085023413304,10631.651953655715,13756.247014552,0.0,0.0,0.0,0.0,176.39,171.53,174.58,174.21,169.77,Open
807,7015.542032187228,937.2309967554804,10031.03822839716,14736.572174617311,0.0,0.0,0.0,0.0,176.39,171.53,174.58,174.21,169.77,Open
808,6824.97105896128,1512.5201955461737,9894.67023547533,15926.847270351323,0.0,0.0,0.0,0.0,176.39,171.53,174.58,174.21,169.77,Open
809,7476.166781922196,2076.946446531588,10447.942965977549,15499.951302999414,0.0,0.0,0.0,0.0,176.39,171.53,174.58,174.21,169.77,Open
810,8080.2450275713245,1934.4987791179155,10971.331414143016,14180.013737680169,0.0,0.0,0.0,0.0,176.39,171.53,174.58,174.21,169.77,Open
811,7714.794005727054,1170.3149879354226,10610.730720845548,13763.01959312196,0.0,0.0,0.0,0.0,176.39,171.53,174.58,174.21,169.77,Open
812,7021.778168890259,928.4467611845448,9971.493181168222,14755.705267871055,0.0,0.0,0.0,0.0,176.39,171.53,174.58,174.21,169.77,Open
813,6862.298472201643,1518.8904427159362,9843.507092417132,15992.024957183,0.0,0.0,0.0,0.0,176.45,171.52,174.59,174.29,170.87,Open
814,7558.041221861986,2136.938528649632,10488.779603097391,15601.160001893044,0.0,0.0,0.0,0.0,176.45,171.52,174.59,174.29,170.87,Open
815,8113.325609365179,1985.572515198292,10991.582094619524,14233.322648206076,0.0,0.0,0.0,0.0,176.45,171.52,174.59,174.29,170.87,Open
816,7672.526856962068,1156.7251273065958,10577.985415218523,13722.04884553538,0.0,0.0,0.0,0.0,176.45,171.52,174.59,174.29,170.87,Open
817,7008.5235844282615,928.5808716512768,9993.911980856894,14738.092093240271,0.0,0.0,0.0,0.0,176.45,171.52,174.59,174.29,170.87,Open
818,6832.5483003316285,1500.5620122625844,9830.878356799883,15965.985174892568,0.0,0.0,0.0,0.0,176.45,171.52,174.59,174.29,170.87,Open
819,7533.923689594709,2116.1067028172856,10447.1159514327,15592.219304110922,0.0,0.0,0.0,0.0,176.45,171.52,174.59,174.29,170.87,Open
820,8119.494690834844,1980.3198552512952,10991.827963808531,14268.414887000908,0.0,0.0,0.0,0.0,176.45,171.52,174.59,174.29,170.87,Open
821,7681.9145896332975,1158.84854302985,10591.888200269725,13728.95553457207,0.0,0.0,0.0,0.0,176.45,171.52,174.59,174.29,170.87,Open
822,7006.780148360747,923.3282117042794,9981.372652217467,14715.047444706852,0.0,0.0,0.0,0.0,176.45,171.52,174.59,174.29,170.87,Open
823,6844.864111526503,1506.0381896541346,9834.789912079565,15976.959881420122,0.0,0.0,0.0,0.0,176.45,171.52,174.59,174.29,170.87,Open
824,7526.815834857922,2115.9502406060983,10456.1684079371,15587.793658708772,0.0,0.0,0.0,0.0,176.45,171.52,174.59,174.29,170.87,Open
825,8096.874725446073,1981.0127593294096,10999.494612156705,14232.987372039244,0.0,0.0,0.0,0.0,176.45,171.52,174.59,174.29,170.87,Open
826,7700.243020086649,1176.1264414938023,10653.087276588354,13715.656246621162,0.0,0.0,0.0,0.0,176.45,171.52,174.59,174.29,170.87,Open
827,7008.076549539155,914.4545691555226,9987.54173368713,14716.902639496642,0.0,0.0,0.0,0.0,176.45,171.52,174.59,174.29,170.87,Open
828,6845.847588282537,1490.8166516800704,9814.494528114144,15994.774221751002,0.0,0.0,0.0,0.0,176.45,171.52,174.59,174.29,170.87,Open
829,7540.383343742293,2120.04060984142,10469.244178443454,15605.60799903965,0.0,0.0,0.0,0.0,176.45,171.52,174.59,174.29,170.87,Open
830,8103.98258018286,1980.1186895511971,10976.785239790112,14264.592738699048,0.0,0.0,0.0,0.0,176.78,171.46,174.51,174.33,170.71,Open
831,7697.113775862906,1166.5375431224757,10593.251656681496,13734.074084052336,0.0,0.0,0.0,0.0,176.78,171.46,174.51,174.33,170.71,Open
832,7028.036657337744,927.507987917422,9999.812841393095,14715.136851684672,0.0,0.0,0.0,0.0,176.78,171.46,174.51,174.33,170.71,Open
833,6829.441407852341,1484.379349276942,9822.921135773797,15961.693639957148,0.0,0.0,0.0,0.0,176.78,171.46,174.51,174.33,170.71,Open
834,7526.592317413369,2111.7257609040453,10450.15578867862,15602.61286528264,0.0,0.0,0.0,0.0,176.78,171.46,174.51,174.33,170.71,Open
835,8107.380045340067,1985.080776820276,10977.209922934762,14258.423657229385,0.0,0.0,0.0,0.0,176.78,171.46,174.51,174.33,170.71,Open
836,7693.984531639163,1162.2460081870563,10598.794889306411,13724.596944403283,0.0,0.0,0.0,0.0,176.78,171.46,174.51,174.33,170.71,Open
837,7012.055160052199,910.1183307311928,9984.83717260804,14696.741365997956,0.0,0.0,0.0,0.0,176.78,171.46,174.51,174.33,170.71,Open
838,6829.217890407788,1481.0042358641906,9816.953220004229,15945.376866504774,0.0,0.0,0.0,0.0,176.78,171.46,174.51,174.33,170.71,Open
839,7528.559270925435,2110.541118447914,10458.090657960256,15606.055033928757,0.0,0.0,0.0,0.0,176.78,171.46,174.51,174.33,170.71,Open
840,8105.614257528098,1981.839773874256,11004.166126747865,14265.68797417736,0.0,0.0,0.0,0.0,176.78,171.46,174.51,174.33,170.71,Open
841,7696.107947362417,1166.3363774223778,10604.76280507598,13721.691217624097,0.0,0.0,0.0,0.0,176.78,171.46,174.51,174.33,170.71,Open
842,7010.311723984686,904.4633393840004,9967.223997977257,14677.496514021936,0.0,0.0,0.0,0.0,176.78,171.46,174.51,174.33,170.71,Open
843,6811.87293671047,1459.9265408428362,9797.08251918346,15928.277781996463,0.0,0.0,0.0,0.0,176.78,171.46,174.51,174.33,170.71,Open
844,7521.406712699737,2104.5955544228023,10465.042050485856,15584.776173207303,0.0,0.0,0.0,0.0,176.78,171.46,174.51,174.33,170.71,Open
845,8109.570516296687,1992.389797257161,11003.026187780642,14260.658831674917,0.0,0.0,0.0,0.0,176.78,171.46,174.51,174.33,170.71,Open
846,7699.416005541802,1170.13617397978,10587.440203123118,13710.76121458545,0.0,0.0,0.0,0.0,176.39,171.61,174.59,174.41,170.19,Open
847,7016.167881031976,908.2407841969472,9965.525265398654,14681.273958834883,0.0,0.0,0.0,0.0,176.39,171.61,174.59,174.41,170.19,Open
848,6814.309276856098,1461.9381978438137,9795.60730404941,15928.993037819033,0.0,0.0,0.0,0.0,176.39,171.61,174.59,174.41,170.19,Open
849,7519.7750353545,2105.288458500917,10453.486198602464,15587.681899986495,0.0,0.0,0.0,0.0,176.39,171.61,174.59,174.41,170.19,Open
850,8107.961190695905,1995.675503692091,11041.001801610208,14273.175808569886,0.0,0.0,0.0,0.0,176.39,171.61,174.59,174.41,170.19,Open
851,7713.989342926663,1184.7989183424615,10656.328279534377,13734.498767196988,0.0,0.0,0.0,0.0,176.39,171.61,174.59,174.41,170.19,Open
852,7064.715869988903,934.437028698567,10020.309391058612,14719.33897964227,0.0,0.0,0.0,0.0,176.39,171.61,174.59,174.41,170.19,Open
853,6861.605568123528,1497.0974918720117,9844.46821742871,15967.438038282162,0.0,0.0,0.0,0.0,176.39,171.61,174.59,174.41,170.19,Open
854,7536.292974506971,2126.947298878109,10462.225730684488,15601.048243170768,0.0,0.0,0.0,0.0,176.39,171.61,174.59,174.41,170.19,Open
855,8112.967981453894,1998.7823961713789,10997.639417366912,14290.610169245028,0.0,0.0,0.0,0.0,176.39,171.61,174.59,174.41,170.19,Open
856,7697.337293307459,1162.1342494647802,10612.80943307989,13703.072214492824,0.0,0.0,0.0,0.0,176.39,171.61,174.59,174.41,170.19,Open
857,7017.061950810189,896.3273044022685,10018.431844524366,14643.387751983137,0.0,0.0,0.0,0.0,176.39,171.61,174.59,174.41,170.19,Open
858,6824.412265349897,1466.0732705680457,9837.85210106994,15938.403122234718,0.0,0.0,0.0,0.0,176.39,171.61,174.59,174.41,170.19,Open
859,7527.575794169402,2112.6868859156234,10434.867195471192,15629.345551651188,0.0,0.0,0.0,0.0,176.39,171.61,174.59,174.41,170.19,Open
860,8117.550089067232,2001.8892886506665,10979.98153924722,14313.006617189243,0.0,0.0,0.0,0.0,176.39,171.61,174.59,174.41,170.19,Open
861,7707.350874823436,1172.974845525604,10611.356569690295,13718.71843561154,0.0,0.0,0.0,0.0,176.39,171.61,174.59,174.41,170.19,Open
862,7030.58475620565,917.1367784901594,10002.584457705552,14685.789011214854,0.0,0.0,0.0,0.0,176.39,171.61,174.59,174.41,170.19,Open
863,6844.774704548682,1490.1460993464111,9831.481853900175,15977.563378520415,0.0,0.0,0.0,0.0,176.39,171.61,174.59,174.41,170.19,Open
864,7545.859521133843,2133.719877448068,10472.97691976749,15648.232775715922,0.0,0.0,0.0,0.0,176.39,171.61,174.59,174.41,170.19,Open
865,8110.978676197372,1999.7211694385016,10997.572362133547,14280.574235984594,0.0,0.0,0.0,0.0,176.39,171.61,174.59,174.41,170.19,Open
866,7706.52386027859,1171.298464691456,10623.91825007418,13684.542618339376,0.0,0.0,0.0,0.0,176.39,171.61,174.59,174.41,170.19,Open
867,7020.81704387868,902.7869585498522,10004.149079817424,14636.771635624364,0.0,0.0,0.0,0.0,176.39,171.61,174.59,174.41,170.19,Open
868,6808.542526786629,1452.6622238948612,9798.244809895135,15943.231099037064,0.0,0.0,0.0,0.0,176.39,171.61,174.59,174.41,170.19,Open
869,7527.374628469304,2114.832653383333,10463.343317907253,15635.157005209569,0.0,0.0,0.0,0.0,176.39,171.61,174.59,174.41,170.19,Open
870,8120.1652431685025,2012.8639951782225,11018.47124319926,14289.604340744538,0.0,0.0,0.0,0.0,176.39,171.61,174.59,174.41,170.19,Open
871,7740.00677347264,1198.3440754823775,10643.833654383858,13695.00323474446,0.0,0.0,0.0,0.0,176.45,171.65,174.57,174.21,169.58,Open
872,7053.182369849965,928.3350024622682,10016.777815434672,14669.248720317928,0.0,0.0,0.0,0.0,176.45,171.65,174.57,174.21,169.58,Open
873,6846.272271427188,1487.508593500685,9825.357475919423,15995.55653280694,0.0,0.0,0.0,0.0,176.45,171.65,174.57,174.21,169.58,Open
874,7517.115177764318,2113.737417905023,10439.270489128889,15628.250316172876,0.0,0.0,0.0,0.0,176.45,171.65,174.57,174.21,169.58,Open
875,8080.021510126771,1975.9165615936,10955.394620346382,14275.790962671155,0.0,0.0,0.0,0.0,176.45,171.65,174.57,174.21,169.58,Open
876,7680.707595432711,1148.2985196469451,10584.780345532936,13665.387173341176,0.0,0.0,0.0,0.0,176.45,171.65,174.57,174.21,169.58,Open
877,7017.240764765831,893.7568537899082,9991.565047689086,14647.411065985092,0.0,0.0,0.0,0.0,176.45,171.65,174.57,174.21,169.58,Open
878,6827.340343873542,1470.9683026037578,9829.023162010091,15964.197035336145,0.0,0.0,0.0,0.0,176.45,171.65,174.57,174.21,169.58,Open
879,7530.928555837698,2131.127075091252,10468.864198787714,15638.28624943331,0.0,0.0,0.0,0.0,176.45,171.65,174.57,174.21,169.58,Open
880,8116.253687888824,2022.452893549549,11009.485841928226,14299.372053071504,0.0,0.0,0.0,0.0,176.45,171.65,174.57,174.21,169.58,Open
881,7735.96110772623,1200.4004359722658,10628.030971053957,13684.721432295017,0.0,0.0,0.0,0.0,176.45,171.65,174.57,174.21,169.58,Open
882,7076.428184083484,938.0580113003268,10010.1616990759,14678.994080900442,0.0,0.0,0.0,0.0,176.45,171.65,174.57,174.21,169.58,Open
883,6852.709573830316,1487.5980004785065,9817.199089193236,15992.807268238936,0.0,0.0,0.0,0.0,176.45,171.65,174.57,174.21,169.58,Open
884,7527.7769598694995,2125.449731999604,10442.198567652533,15654.71478160796,0.0,0.0,0.0,0.0,176.45,171.65,174.57,174.21,169.58,Open
885,8104.228449371869,2007.0748933642976,10971.912559498856,14297.986244915275,0.0,0.0,0.0,0.0,176.45,171.65,174.57,174.21,169.58,Open
886,7722.952392453241,1188.6881218776848,10627.650991398215,13685.95077824006,0.0,0.0,0.0,0.0,176.45,171.65,174.57,174.21,169.58,Open
887,7043.235843567353,919.2825459578688,10004.84198389554,14649.489778219437,0.0,0.0,0.0,0.0,176.45,171.65,174.57,174.21,169.58,Open
888,6819.003143191713,1464.6874624118166,9773.16615261628,15979.552683776938,0.0,0.0,0.0,0.0,176.54,171.63,174.45,174.17,169.1,Open
889,7511.504889906037,2120.8452726418104,10426.172366878078,15648.43394141602,0.0,0.0,0.0,0.0,176.54,171.63,174.45,174.17,169.1,Open
890,8088.828097442162,2014.585079501281,11001.84154532451,14295.728718725291,0.0,0.0,0.0,0.0,176.54,171.63,174.45,174.17,169.1,Open
891,7708.200241112739,1182.8990200637604,10617.52565115996,13642.901318419135,0.0,0.0,0.0,0.0,176.54,171.63,174.45,174.17,169.1,Open
892,7037.089113842144,903.9492492615284,9976.701137626307,14596.627902582635,0.0,0.0,0.0,0.0,176.54,171.63,174.45,174.17,169.1,Open
893,6821.193614148333,1465.5591804455737,9798.088347683948,15946.069770582888,0.0,0.0,0.0,0.0,176.54,171.63,174.45,174.17,169.1,Open
