sample_index,EXG Channel 0,EXG Channel 1,EXG Channel 2,EXG Channel 3,EXG Channel 4,EXG Channel 5,EXG Channel 6,EXG Channel 7,thumb_ext_angle,index_ext_angle,middle_ext_angle,ring_ext_angle,pinky_ext_angle,hand_state
0,2096.481871185526,1302.547908133019,1289.4497858822092,10987.692891084302,0.0,0.0,0.0,0.0,143.04,148.13,141.16,146.19,153.65,Open
1,2107.769502135456,1312.002696037614,1242.3546603148773,10747.07636202292,0.0,0.0,0.0,0.0,143.04,148.13,141.16,146.19,153.65,Open
2,2157.345671337327,1370.988949655169,1306.2806494570557,10853.582424352458,0.0,0.0,0.0,0.0,143.04,148.13,141.16,146.19,153.65,Open
3,0.0,0.0,0.0,0.0,0.0,0.0,0.0,0.0,141.17,146.74,140.07,145.06,151.89,Open
4,-1315.8918995728377,-1648.1729326454322,-1542.382126138464,10810.532964531538,0.0,0.0,0.0,0.0,141.17,146.74,140.07,145.06,151.89,Open
5,-1233.749238699584,-1588.5161266942175,-1436.3454504424872,10952.712411011746,0.0,0.0,0.0,0.0,141.17,146.74,140.07,145.06,151.89,Open
6,-1102.365684791289,-1557.1566292234218,-1294.4118731512874,11220.21808865286,0.0,0.0,0.0,0.0,141.17,146.74,140.07,145.06,151.89,Open
7,-1121.6999437451295,-1589.2537342612427,-1331.0240305690802,11246.03435349874,0.0,0.0,0.0,0.0,141.17,146.74,140.07,145.06,151.89,Open
8,-1201.42861621721,-1648.1952843898875,-1411.5350140970963,11031.770531150169,0.0,0.0,0.0,0.0,141.17,146.74,140.07,145.06,151.89,Open
9,-1297.384655163843,-1647.0553454226667,-1510.799111223115,10820.211269880683,0.0,0.0,0.0,0.0,141.17,146.74,140.07,145.06,151.89,Open
10,-1220.4275990042208,-1581.0953475350557,-1428.768209072138,10962.055440194064,0.0,0.0,0.0,0.0,141.17,146.74,140.07,145.06,151.89,Open
11,-1082.0926525703255,-1540.63869007095,-1285.4488236247091,11227.996495723308,0.0,0.0,0.0,0.0,141.17,146.74,140.07,145.06,151.89,Open
12,-1110.4793680285654,-1576.2226672437987,-1322.910347331804,11251.354068679104,0.0,0.0,0.0,0.0,141.17,146.74,140.07,145.06,151.89,Open
13,-1179.300389206456,-1626.0670573791335,-1393.9441912107698,11031.859938127987,0.0,0.0,0.0,0.0,141.17,146.74,140.07,145.06,151.89,Open
14,-1287.907515514793,-1633.6666504939378,-1504.3618088199864,10820.23362162514,0.0,0.0,0.0,0.0,141.17,146.74,140.07,145.06,151.89,Open
15,-1193.6725608912184,-1564.9350362938687,-1406.3941128723757,10964.894111739888,0.0,0.0,0.0,0.0,141.17,146.74,140.07,145.06,151.89,Open
16,-1067.027576807449,-1525.283041630154,-1273.5353438300306,11230.142263191015,0.0,0.0,0.0,0.0,141.17,146.74,140.07,145.06,151.89,Open
17,-1101.046931868426,-1561.1352397364665,-1313.7908355940383,11250.214129711883,0.0,0.0,0.0,0.0,141.68,146.7,140.02,144.35,150.79,Open
18,-1171.94666528066,-1619.0262578757115,-1384.020016672613,11028.149548548408,0.0,0.0,0.0,0.0,141.68,146.7,140.02,144.35,150.79,Open
19,-1260.5713320459524,-1614.8464816625694,-1383.9753131837026,10817.57376403496,0.0,0.0,0.0,0.0,141.68,146.7,140.02,144.35,150.79,Open
20,-1181.5132119075313,-1548.8194285415923,-1306.2582977126,10958.88149248141,0.0,0.0,0.0,0.0,141.68,146.7,140.02,144.35,150.79,Open
21,-1055.6058353907868,-1516.990544437235,-1264.0805559254356,11221.872117742554,0.0,0.0,0.0,0.0,141.68,146.7,140.02,144.35,150.79,Open
22,-1083.657274682197,-1551.92632102088,-1302.682018599751,11243.150978464006,0.0,0.0,0.0,0.0,141.68,146.7,140.02,144.35,150.79,Open
23,-1149.1031824473362,-1599.7143506663265,-1372.5535717670407,11024.863842113476,0.0,0.0,0.0,0.0,141.68,146.7,140.02,144.35,150.79,Open
24,-1257.5091430555754,-1610.1749670714105,-1485.765157433171,10822.222926881665,0.0,0.0,0.0,0.0,141.68,146.7,140.02,144.35,150.79,Open
25,-1187.3693689548218,-1549.5570361086177,-1395.642923789373,10970.571454831535,0.0,0.0,0.0,0.0,141.68,146.7,140.02,144.35,150.79,Open
26,-1059.852666837295,-1375.0569671460353,-1265.4663640816646,11234.79142603772,0.0,0.0,0.0,0.0,141.68,146.7,140.02,144.35,150.79,Open
27,-1070.559152431387,-948.183351538581,-1293.87543128436,11248.202472710906,0.0,0.0,0.0,0.0,141.68,146.7,140.02,144.35,150.79,Open
28,-1150.3995836257438,-924.1775779935812,-1365.289254819066,11018.627705410448,0.0,0.0,0.0,0.0,141.68,146.7,140.02,144.35,150.79,Open
29,-1220.204081559668,-902.6751998275756,-1357.063812859513,10803.8497929394,0.0,0.0,0.0,0.0,141.68,146.7,140.02,144.35,150.79,Open
30,-1132.7640572505063,-831.1049140816825,-1276.6869397982289,10943.59289927398,0.0,0.0,0.0,0.0,141.68,146.7,140.02,144.35,150.79,Open
31,-1021.8994047521836,-810.2730882493363,-1243.4498957931871,11205.153012889985,0.0,0.0,0.0,0.0,141.68,146.7,140.02,144.35,150.79,Open
32,-1052.1636667446694,-844.9853473884282,-1284.8676782688713,11221.93917297592,0.0,0.0,0.0,0.0,141.68,146.7,140.02,144.35,150.79,Open
33,-1109.3841325502551,-896.6402288246428,-1348.3913360108538,10998.824059823044,0.0,0.0,0.0,0.0,141.68,146.7,140.02,144.35,150.79,Open
34,-1192.174994012713,-893.3545223897127,-1348.83837089996,10790.9975398776,0.0,0.0,0.0,0.0,141.68,146.7,140.02,144.35,150.79,Open
35,-1121.5434815339424,-824.8687773786519,-1266.651006537796,10937.133245126395,0.0,0.0,0.0,0.0,141.68,146.7,140.02,144.35,150.79,Open
36,-990.986942170494,-783.9427332809846,-1222.1710350717349,11202.113175644065,0.0,0.0,0.0,0.0,141.68,146.7,140.02,144.35,150.79,Open
37,-1037.1656462151584,-829.7861611588194,-1274.742338030617,11219.480481085837,0.0,0.0,0.0,0.0,141.68,146.7,140.02,144.35,150.79,Open
38,-1087.5464782174204,-880.4575658390005,-1336.5225597050858,10998.354673189482,0.0,0.0,0.0,0.0,141.68,146.7,140.02,144.35,150.79,Open
39,-1084.4172339936774,-874.0426151803274,-1337.483684716664,10790.818725921956,0.0,0.0,0.0,0.0,141.68,146.7,140.02,144.35,150.79,Open
40,-1013.1375209257033,-802.5617364122554,-1254.9833959321256,10933.959297413743,0.0,0.0,0.0,0.0,141.68,146.7,140.02,144.35,150.79,Open
41,-971.2727035609132,-766.4413173724791,-1210.592831443886,11200.101518643083,0.0,0.0,0.0,0.0,141.68,146.7,140.02,144.35,150.79,Open
42,-1019.4407128621,-813.8940708510961,-1262.0241954355474,11216.977085706842,0.0,0.0,0.0,0.0,141.4,147.84,141.49,147.01,154.65,Open
43,-1067.8769430967502,-859.8045539622968,-1323.0444577985356,10994.286655698616,0.0,0.0,0.0,0.0,141.4,147.84,141.49,147.01,154.65,Open
44,-1060.4114604486776,-852.8084579477857,-1319.512882174597,10789.47762125464,0.0,0.0,0.0,0.0,141.4,147.84,141.49,147.01,154.65,Open
45,-986.0695583903264,-777.639541344588,-1236.520855012042,10935.725085225711,0.0,0.0,0.0,0.0,141.4,147.84,141.49,147.01,154.65,Open
46,-950.7090986620306,-747.0176514408173,-1198.7240551381178,11202.806079722175,0.0,0.0,0.0,0.0,141.4,147.84,141.49,147.01,154.65,Open
47,-1005.560279555354,-800.34891371118,-1254.9610441876705,11218.40759735198,0.0,0.0,0.0,0.0,141.4,147.84,141.49,147.01,154.65,Open
48,-1052.4542394225884,-851.087373624727,-1312.0250477820694,10997.684120855823,0.0,0.0,0.0,0.0,141.4,147.84,141.49,147.01,154.65,Open
49,-1051.7389836000186,-849.2545305793918,-1312.6285448823626,10793.053900367488,0.0,0.0,0.0,0.0,141.4,147.84,141.49,147.01,154.65,Open
50,-980.5933809987762,-776.7231198219205,-1232.6540032212738,10940.441303305784,0.0,0.0,0.0,0.0,141.4,147.84,141.49,147.01,154.65,Open
51,-946.596377682254,-744.1342764060827,-1193.7619678690396,11203.655446011478,0.0,0.0,0.0,0.0,141.4,147.84,141.49,147.01,154.65,Open
52,-987.7012357355638,-786.8037565712639,-1235.7608957005616,11219.391074108014,0.0,0.0,0.0,0.0,141.4,147.84,141.49,147.01,154.65,Open
53,-1033.1646839576583,-831.216672803959,-1293.5625068619856,10994.733690587724,0.0,0.0,0.0,0.0,141.4,147.84,141.49,147.01,154.65,Open
54,-1037.2774049374348,-834.122399583149,-1300.9609342766923,10794.774984690546,0.0,0.0,0.0,0.0,141.4,147.84,141.49,147.01,154.65,Open
55,-956.2523312869469,-753.0749741882056,-1214.1914623011903,10947.057419664552,0.0,0.0,0.0,0.0,141.4,147.84,141.49,147.01,154.65,Open
56,-921.473016914489,-721.6484214840439,-1173.7348048370843,11208.5951815361,0.0,0.0,0.0,0.0,141.4,147.84,141.49,147.01,154.65,Open
57,-966.176505825103,-768.1400499510825,-1219.3770670148217,11220.55336481969,0.0,0.0,0.0,0.0,141.4,147.84,141.49,147.01,154.65,Open
58,-1009.114206923748,-812.865890606152,-1276.195201420212,10997.102975499984,0.0,0.0,0.0,0.0,141.66,147.19,140.67,146.07,153.69,Open
59,-1009.1589104126584,-809.6919428934983,-1277.8715822543602,10796.741938202613,0.0,0.0,0.0,0.0,141.66,147.19,140.67,146.07,153.69,Open
60,-934.146456020648,-736.4452763134572,-1196.9359155816933,10951.617175533436,0.0,0.0,0.0,0.0,141.66,147.19,140.67,146.07,153.69,Open
61,-905.1115399732042,-709.0867411001612,-1161.240179686568,11213.914896716464,0.0,0.0,0.0,0.0,141.66,147.19,140.67,146.07,153.69,Open
62,-948.7421451499636,-752.2256078989038,-1208.201194787168,11223.101463687595,0.0,0.0,0.0,0.0,141.66,147.19,140.67,146.07,153.69,Open
63,-993.6020962717648,-798.9184020660404,-1263.2982448695,10998.265266211662,0.0,0.0,0.0,0.0,141.66,147.19,140.67,146.07,153.69,Open
64,-1001.6040207867647,-800.0806927777163,-1268.3720908608543,10799.55825800398,0.0,0.0,0.0,0.0,141.66,147.19,140.67,146.07,153.69,Open
65,-923.2835082153688,-724.2635755853147,-1182.653150874752,10957.40627734736,0.0,0.0,0.0,0.0,141.66,147.19,140.67,146.07,153.69,Open
66,-884.1679554185815,-690.9818280913626,-1141.0789061878809,11218.809928752176,0.0,0.0,0.0,0.0,141.66,147.19,140.67,146.07,153.69,Open
67,-918.5896418797544,-727.8622064426191,-1189.4704329336207,11227.46005385638,0.0,0.0,0.0,0.0,141.66,147.19,140.67,146.07,153.69,Open
68,-975.1842588405918,-784.9709135259287,-1253.5081807980753,10998.578190634036,0.0,0.0,0.0,0.0,141.66,147.19,140.67,146.07,153.69,Open
69,-975.2513140739578,-781.7522623243646,-1254.1787331317346,10804.028606895045,0.0,0.0,0.0,0.0,141.66,147.19,140.67,146.07,153.69,Open
70,-894.4497578680227,-703.4541014974238,-1167.364557667322,10963.463600094748,0.0,0.0,0.0,0.0,141.66,147.19,140.67,146.07,153.69,Open
71,-864.1631441310817,-674.9779790613627,-1132.3617258503111,11222.006228209286,0.0,0.0,0.0,0.0,141.66,147.19,140.67,146.07,153.69,Open
72,-912.4205604100896,-725.6270319970885,-1182.8319648303946,11226.655391055989,0.0,0.0,0.0,0.0,141.66,147.19,140.67,146.07,153.69,Open
73,-962.2202470565136,-775.0690907322277,-1241.192369603201,10998.6452458674,0.0,0.0,0.0,0.0,141.66,147.19,140.67,146.07,153.69,Open
74,-940.4272962125892,-753.0526224437502,-1227.5354537410085,10806.464947040671,0.0,0.0,0.0,0.0,141.66,147.19,140.67,146.07,153.69,Open
75,-869.3040453558023,-680.8564878531084,-1150.8019150259397,10967.352803629972,0.0,0.0,0.0,0.0,141.27,146.57,139.9,145.0,152.11,Open
76,-853.0096236478835,-666.6407783795331,-1127.7572664925178,11225.35898987758,0.0,0.0,0.0,0.0,141.27,146.57,139.9,145.0,152.11,Open
77,-888.4147868650898,-702.9623631194071,-1168.8174210569168,11228.711751545878,0.0,0.0,0.0,0.0,141.27,146.57,139.9,145.0,152.11,Open
78,-936.9627758220169,-753.0079189548396,-1226.395514773788,11001.282751713128,0.0,0.0,0.0,0.0,141.27,146.57,139.9,145.0,152.11,Open
79,-932.5594821643213,-746.8611892296302,-1222.461607749654,10808.320141830462,0.0,0.0,0.0,0.0,141.27,146.57,139.9,145.0,152.11,Open
80,-860.8103824627856,-675.1567930170052,-1143.9622812226155,10973.186608932809,0.0,0.0,0.0,0.0,141.27,146.57,139.9,145.0,152.11,Open
81,-816.4421697190011,-634.7671907862652,-1096.9565626331048,11230.522242846757,0.0,0.0,0.0,0.0,141.27,146.57,139.9,145.0,152.11,Open
82,-870.1310599006487,-689.7301304018654,-1150.46663885911,11231.5504230917,0.0,0.0,0.0,0.0,141.27,146.57,139.9,145.0,152.11,Open
83,-929.9890315519608,-746.8164857407196,-1218.103017580869,11001.238048224215,0.0,0.0,0.0,0.0,141.27,146.57,139.9,145.0,152.11,Open
84,-917.829682568274,-732.511369289323,-1209.2740785210226,10811.38233082084,0.0,0.0,0.0,0.0,141.27,146.57,139.9,145.0,152.11,Open
85,-832.3119082822691,-651.7545165722986,-1120.7388187335514,10978.819248535545,0.0,0.0,0.0,0.0,141.27,146.57,139.9,145.0,152.11,Open
86,-808.1943760149928,-629.8051035171871,-1095.235478310046,11235.059646971184,0.0,0.0,0.0,0.0,141.27,146.57,139.9,145.0,152.11,Open
87,-849.2321788349366,-672.8769150825639,-1138.3743451087887,11235.618440582568,0.0,0.0,0.0,0.0,141.27,146.57,139.9,145.0,152.11,Open
88,-908.7548743194192,-730.3879535660689,-1206.0554273194584,11001.394510435404,0.0,0.0,0.0,0.0,141.27,146.57,139.9,145.0,152.11,Open
89,-889.3312083877574,-711.612488223611,-1193.381988213299,10813.930429688744,0.0,0.0,0.0,0.0,141.27,146.57,139.9,145.0,152.11,Open
90,-826.8580826351741,-647.485333381335,-1117.497815787532,10983.177838704329,0.0,0.0,0.0,0.0,141.27,146.57,139.9,145.0,152.11,Open
91,-799.5666026552442,-624.3289261256368,-1085.400710749711,11240.22289994036,0.0,0.0,0.0,0.0,140.97,147.31,140.72,145.34,152.25,Open
92,-825.8075506457748,-652.9391590284299,-1124.0021734240263,11236.870138272065,0.0,0.0,0.0,0.0,140.97,147.31,140.72,145.34,152.25,Open
93,-881.0387111948385,-705.644572454044,-1186.698816621163,11003.942609303307,0.0,0.0,0.0,0.0,140.97,147.31,140.72,145.34,152.25,Open
94,-870.7569087453973,-693.3958164925357,-1176.975807783104,10818.71370300218,0.0,0.0,0.0,0.0,140.97,147.31,140.72,145.34,152.25,Open
95,-798.1584427545599,-620.842053990609,-1094.2967050429231,10989.682196340824,0.0,0.0,0.0,0.0,140.97,147.31,140.72,145.34,152.25,Open
96,-769.995244740873,-598.8255857021315,-1062.5348761719315,11242.100446474606,0.0,0.0,0.0,0.0,140.97,147.31,140.72,145.34,152.25,Open
97,-812.3294487392246,-644.1996269464048,-1109.1159116167917,11235.663144071475,0.0,0.0,0.0,0.0,140.97,147.31,140.72,145.34,152.25,Open
98,-863.3808330751459,-694.1110723151055,-1173.108955992336,11003.383815691926,0.0,0.0,0.0,0.0,140.97,147.31,140.72,145.34,152.25,Open
99,-844.605367732688,-674.5532959167118,-1160.2119994416237,10822.33468560394,0.0,0.0,0.0,0.0,140.97,147.31,140.72,145.34,152.25,Open
100,-780.7911373127863,-611.0296381747291,-1086.0936148278254,10994.577228376536,0.0,0.0,0.0,0.0,140.97,147.31,140.72,145.34,152.25,Open
101,-758.7076137909429,-591.7400827097991,-1061.1267162712477,11246.369629665567,0.0,0.0,0.0,0.0,140.97,147.31,140.72,145.34,152.25,Open
102,-794.313942708247,-629.0227924612514,-1104.6455627257303,11239.08296097314,0.0,0.0,0.0,0.0,140.97,147.31,140.72,145.34,152.25,Open
103,-851.8249811917522,-686.1314995445609,-1169.2421042015678,11003.629684880934,0.0,0.0,0.0,0.0,140.97,147.31,140.72,145.34,152.25,Open
104,-839.6656322080651,-674.2180197498823,-1158.4462116296545,10822.580554792949,0.0,0.0,0.0,0.0,140.97,147.31,140.72,145.34,152.25,Open
105,-755.4666108449234,-591.8965449209863,-1069.1509925307028,11001.528620902136,0.0,0.0,0.0,0.0,140.97,147.31,140.72,145.34,152.25,Open
106,-733.3830873230801,-571.6235127000228,-1041.8371608063176,11251.711696590388,0.0,0.0,0.0,0.0,140.97,147.31,140.72,145.34,152.25,Open
107,-776.253733188359,-617.1540161554833,-1090.1169288297808,11240.759341807288,0.0,0.0,0.0,0.0,140.97,147.31,140.72,145.34,152.25,Open
108,-828.087428580216,-668.9206563139745,-1153.774697038495,11004.903734314888,0.0,0.0,0.0,0.0,140.97,147.31,140.72,145.34,152.25,Open
109,-819.571413942744,-658.5270951422567,-1145.6610138012188,10825.978019950157,0.0,0.0,0.0,0.0,140.97,147.31,140.72,145.34,152.25,Open
110,-747.9117212190296,-586.1521465959725,-1061.30553022689,11004.546106403604,0.0,0.0,0.0,0.0,140.97,147.31,140.72,145.34,152.25,Open
111,-709.7796451782758,-556.5807886816011,-1024.9615937425606,11254.907996047496,0.0,0.0,0.0,0.0,140.97,147.31,140.72,145.34,152.25,Open
112,-755.6901282894764,-607.2968968506929,-1076.102385056303,11240.781693551742,0.0,0.0,0.0,0.0,140.97,147.31,140.72,145.34,152.25,Open
113,-803.8357858462078,-653.9226357844634,-1139.2907666314563,11006.423652937849,0.0,0.0,0.0,0.0,140.97,147.31,140.72,145.34,152.25,Open
114,-785.4626519039455,-629.939213983919,-1124.2256908685792,10828.973153707166,0.0,0.0,0.0,0.0,140.97,147.31,140.72,145.34,152.25,Open
115,-711.2772120567813,-556.5360851926905,-1040.116076483259,11008.859993083475,0.0,0.0,0.0,0.0,140.97,147.31,140.72,145.34,152.25,Open
116,-696.5027089718234,-548.8917885889755,-1020.4241896181334,11259.713621105388,0.0,0.0,0.0,0.0,139.35,146.09,140.04,144.11,150.99,Open
117,-752.6055875546441,-605.1287776385282,-1077.2870275124344,11243.799179053209,0.0,0.0,0.0,0.0,139.35,146.09,140.04,144.11,150.99,Open
118,-775.024387243317,-631.0568012066843,-1120.6717635001855,11007.049501782598,0.0,0.0,0.0,0.0,139.35,146.09,140.04,144.11,150.99,Open
119,-762.7309277928982,-618.6292312895335,-1113.1615773632022,10831.342438619427,0.0,0.0,0.0,0.0,139.35,146.09,140.04,144.11,150.99,Open
120,-698.7602351618094,-552.8927508464755,-1037.366811915256,11012.235106496228,0.0,0.0,0.0,0.0,139.35,146.09,140.04,144.11,150.99,Open
121,-676.7884703622426,-534.0949337595623,-1012.6904860365972,11262.172312995472,0.0,0.0,0.0,0.0,139.35,146.09,140.04,144.11,150.99,Open
122,-709.0196858667954,-569.9918353547854,-1051.2472452220018,11246.593147110125,0.0,0.0,0.0,0.0,139.35,146.09,140.04,144.11,150.99,Open
123,-760.9427882364737,-618.9868592008185,-1110.0323331394593,11006.915391315866,0.0,0.0,0.0,0.0,139.35,146.09,140.04,144.11,150.99,Open
124,-749.9233782200073,-606.5592892836678,-1100.7563591905068,10832.616488053382,0.0,0.0,0.0,0.0,139.35,146.09,140.04,144.11,150.99,Open
125,-676.0061593063068,-537.9841372947857,-1023.016991974949,11017.733635632234,0.0,0.0,0.0,0.0,139.35,146.09,140.04,144.11,150.99,Open
126,-647.12770547005,-511.6984858153446,-992.3503985822676,11264.452190929913,0.0,0.0,0.0,0.0,139.35,146.09,140.04,144.11,150.99,Open
127,-692.7252641588765,-556.4690299593246,-1042.2841956954237,11247.46486514388,0.0,0.0,0.0,0.0,139.35,146.09,140.04,144.11,150.99,Open
128,-744.804828739742,-606.9169171949527,-1103.4162167806885,11009.307027972583,0.0,0.0,0.0,0.0,139.35,146.09,140.04,144.11,150.99,Open
129,-729.3374215766695,-593.6846844774109,-1089.558135218398,10837.48916834464,0.0,0.0,0.0,0.0,139.35,146.09,140.04,144.11,150.99,Open
130,-660.9634352878852,-525.0424772551629,-1010.34355286879,11021.511080445182,0.0,0.0,0.0,0.0,139.35,146.09,140.04,144.11,150.99,Open
131,-632.2637954072709,-499.6285438094788,-981.1298228657035,11266.642661886532,0.0,0.0,0.0,0.0,139.35,146.09,140.04,144.11,150.99,Open
132,-687.3384937451475,-556.7819543816989,-1038.2385299490131,11246.235519198835,0.0,0.0,0.0,0.0,140.07,146.64,140.41,145.56,152.58,Open
133,-717.6474592265439,-589.5719634976344,-1088.820527651373,11007.675350627344,0.0,0.0,0.0,0.0,140.07,146.64,140.41,145.56,152.58,Open
134,-706.80686316572,-575.0209778572295,-1075.4094809781886,10839.14319743433,0.0,0.0,0.0,0.0,140.07,146.64,140.41,145.56,152.58,Open
135,-620.6632400349665,-490.9560669608196,-984.7508054674632,11028.84245262652,0.0,0.0,0.0,0.0,140.07,146.64,140.41,145.56,152.58,Open
136,-611.9237079529414,-484.8540407245208,-968.2999215483572,11272.699984633922,0.0,0.0,0.0,0.0,140.07,146.64,140.41,145.56,152.58,Open
137,-664.3832521895471,-541.2474919852605,-1023.307564652868,11248.13541747754,0.0,0.0,0.0,0.0,140.07,146.64,140.41,145.56,152.58,Open
138,-717.5804039931779,-595.2493065892824,-1088.2617340399902,11005.574286648549,0.0,0.0,0.0,0.0,140.07,146.64,140.41,145.56,152.58,Open
139,-699.6319531955663,-572.9646173673412,-1074.4036524776998,10840.730171290656,0.0,0.0,0.0,0.0,140.07,146.64,140.41,145.56,152.58,Open
140,-620.260908634771,-495.4487675963363,-985.175488612114,11030.362371249485,0.0,0.0,0.0,0.0,140.07,146.64,140.41,145.56,152.58,Open
141,-596.3221903231371,-477.1426888874399,-957.0569940873378,11272.409411956003,0.0,0.0,0.0,0.0,140.07,146.64,140.41,145.56,152.58,Open
142,-652.9838625173405,-531.748000591755,-1014.9033087376724,11249.029487255752,0.0,0.0,0.0,0.0,140.07,146.64,140.41,145.56,152.58,Open
143,-689.193688534938,-568.2036957983609,-1067.564018674376,11009.664655883867,0.0,0.0,0.0,0.0,140.07,146.64,140.41,145.56,152.58,Open
144,-668.5853801471449,-549.3388234780817,-1051.0237277774488,10845.602851581914,0.0,0.0,0.0,0.0,140.07,146.64,140.41,145.56,152.58,Open
145,-599.9655246693521,-482.3282936010711,-970.8703721607176,11035.682086429846,0.0,0.0,0.0,0.0,140.07,146.64,140.41,145.56,152.58,Open
146,-581.3018180491708,-465.76565095968857,-947.75866839393,11276.097449791128,0.0,0.0,0.0,0.0,140.07,146.64,140.41,145.56,152.58,Open
147,-624.9771267148408,-512.1008172155401,-1000.1958608860804,11250.214129711883,0.0,0.0,0.0,0.0,140.07,146.64,140.41,145.56,152.58,Open
148,-670.485278425846,-559.9335503498972,-1057.662195880675,11008.211792494272,0.0,0.0,0.0,0.0,140.07,146.64,140.41,145.56,152.58,Open
149,-653.5650078731785,-539.3475937065595,-1043.982928274027,10846.251052171116,0.0,0.0,0.0,0.0,140.8,146.49,139.56,144.44,151.48,Open
150,-578.2172773143384,-464.4468980368255,-958.018119098916,11039.593641709524,0.0,0.0,0.0,0.0,140.8,146.49,139.56,144.44,151.48,Open
151,-562.8392771290871,-454.61213047649034,-935.4875606879664,11279.696080648431,0.0,0.0,0.0,0.0,140.8,146.49,139.56,144.44,151.48,Open
152,-606.648696261489,-499.9414682318531,-989.5117270364436,11249.767094822775,0.0,0.0,0.0,0.0,140.8,146.49,139.56,144.44,151.48,Open
153,-656.515438141279,-548.8247333556096,-1049.7943818324068,11005.596638393004,0.0,0.0,0.0,0.0,140.8,146.49,139.56,144.44,151.48,Open
154,-629.4921790948129,-521.91323303142,-1026.369753643245,10848.374467894371,0.0,0.0,0.0,0.0,140.8,146.49,139.56,144.44,151.48,Open
155,-552.4010124684587,-446.2749297946608,-940.986089823972,11043.080513844552,0.0,0.0,0.0,0.0,140.8,146.49,139.56,144.44,151.48,Open
156,-538.1853029948835,-435.4119819893816,-922.3223832037908,11281.081888804662,0.0,0.0,0.0,0.0,140.8,146.49,139.56,144.44,151.48,Open
157,-591.6283239875227,-492.6324477949677,-983.2085351000472,11251.868158801575,0.0,0.0,0.0,0.0,140.8,146.49,139.56,144.44,151.48,Open
158,-643.1937984459161,-540.845160585065,-1043.7594108294738,11007.116557015965,0.0,0.0,0.0,0.0,140.8,146.49,139.56,144.44,151.48,Open
159,-627.6593360494776,-521.9355847758752,-1026.950898999083,10850.296717917528,0.0,0.0,0.0,0.0,140.8,146.49,139.56,144.44,151.48,Open
160,-542.7450588637661,-442.5421884706245,-939.1532467786368,11049.115484847483,0.0,0.0,0.0,0.0,140.8,146.49,139.56,144.44,151.48,Open
161,-524.4389801548696,-429.399362730904,-919.0143250244053,11285.015795828796,0.0,0.0,0.0,0.0,140.8,146.49,139.56,144.44,151.48,Open
162,-566.2814457752045,-472.94056092984215,-968.0093488704384,11252.6057663686,0.0,0.0,0.0,0.0,140.8,146.49,139.56,144.44,151.48,Open
163,-611.2978591081928,-513.9783637497859,-1026.3250501543343,11009.239972739217,0.0,0.0,0.0,0.0,140.8,146.49,139.56,144.44,151.48,Open
164,-601.5301467812237,-503.2271746667832,-1011.081160435815,10851.436656884747,0.0,0.0,0.0,0.0,140.8,146.49,139.56,144.44,151.48,Open
165,-534.072582015107,-437.15541805689554,-930.3019559743352,11048.199063324815,0.0,0.0,0.0,0.0,140.8,146.49,139.56,144.44,151.48,Open
166,-503.92007874489775,-415.3401154685158,-905.536223117855,11285.99927258483,0.0,0.0,0.0,0.0,140.8,146.49,139.56,144.44,151.48,Open
167,-543.0579832861404,-454.4780200097585,-954.7771161528964,11252.739876835332,0.0,0.0,0.0,0.0,140.8,146.49,139.56,144.44,151.48,Open
168,-594.1764228554276,-505.19412817885024,-1015.4621023490552,11006.736577360223,0.0,0.0,0.0,0.0,140.8,146.49,139.56,144.44,151.48,Open
169,-581.3465215380814,-489.8384797380543,-1001.6710760201308,10853.7612383081,0.0,0.0,0.0,0.0,140.8,146.49,139.56,144.44,151.48,Open
170,-512.5478521046463,-424.1467027839069,-922.8364733262626,11051.28360405965,0.0,0.0,0.0,0.0,140.8,146.49,139.56,144.44,151.48,Open
171,-493.7276832732777,-409.0816270210299,-902.0940544717378,11288.368557497091,0.0,0.0,0.0,0.0,140.8,146.49,139.56,144.44,151.48,Open
172,-535.3019279601489,-451.8628659084876,-949.4797527169889,11252.538711135234,0.0,0.0,0.0,0.0,140.8,146.49,139.56,144.44,151.48,Open
173,-585.7274634513216,-501.3272763880821,-1009.404779601667,11005.864859326466,0.0,0.0,0.0,0.0,140.8,146.49,139.56,144.44,151.48,Open
174,-567.1084603200508,-482.5071075567135,-993.5573927828542,10855.77289530908,0.0,0.0,0.0,0.0,140.8,146.49,139.56,144.44,151.48,Open
175,-493.7053315288224,-414.49074917921416,-908.2854876858578,11056.648022728925,0.0,0.0,0.0,0.0,140.7,146.3,139.57,144.19,151.56,Open
176,-473.8346307080544,-398.57630712703553,-887.2748478978691,11292.056595332217,0.0,0.0,0.0,0.0,140.7,146.3,139.57,144.19,151.56,Open
177,-514.5371573611686,-438.5859297020352,-941.1425520351592,11251.7564000793,0.0,0.0,0.0,0.0,140.7,146.3,139.57,144.19,151.56,Open
178,-567.264922531238,-486.91040121440903,-1004.1297679102144,11003.942609303307,0.0,0.0,0.0,0.0,140.7,146.3,139.57,144.19,151.56,Open
179,-556.5584369371459,-474.54988653062424,-990.1599276256476,10856.756372065112,0.0,0.0,0.0,0.0,140.7,146.3,139.57,144.19,151.56,Open
180,-479.7801947331661,-400.8338333170216,-905.3574091622124,11059.598452997025,0.0,0.0,0.0,0.0,140.7,146.3,139.57,144.19,151.56,Open
181,-464.0445666366299,-389.3897401559043,-889.4653188544893,11291.274284276282,0.0,0.0,0.0,0.0,140.7,146.3,139.57,144.19,151.56,Open
182,-499.1591571759173,-428.25942376368334,-931.4642466860112,11253.008097768796,0.0,0.0,0.0,0.0,140.7,146.3,139.57,144.19,151.56,Open
183,-545.427268198403,-470.77244171767734,-987.4330148021002,11005.239010481717,0.0,0.0,0.0,0.0,140.7,146.3,139.57,144.19,151.56,Open
184,-534.5419686486684,-456.3555665440043,-972.0103111279384,10857.024592998576,0.0,0.0,0.0,0.0,140.7,146.3,139.57,144.19,151.56,Open
185,-461.27295032417186,-383.0641964750524,-887.632475809154,11062.57123500958,0.0,0.0,0.0,0.0,140.7,146.3,139.57,144.19,151.56,Open
186,-437.9377291128313,-370.6366265579017,-864.2078476199923,11294.582342455667,0.0,0.0,0.0,0.0,140.7,146.3,139.57,144.19,151.56,Open
187,-477.70148249882254,-409.66277237686785,-913.7840168218634,11252.22578671286,0.0,0.0,0.0,0.0,140.7,146.3,139.57,144.19,151.56,Open
188,-538.4311721838918,-464.5810085035573,-982.6720932331197,11001.461565668773,0.0,0.0,0.0,0.0,140.7,146.3,139.57,144.19,151.56,Open
189,-517.4205323959031,-441.02226984766367,-961.1697150671145,10858.991546510642,0.0,0.0,0.0,0.0,140.7,146.3,139.57,144.19,151.56,Open
190,-434.204987788795,-368.3567486234604,-873.796745991319,11065.85694144451,0.0,0.0,0.0,0.0,140.38,146.44,139.31,143.38,150.18,Open
191,-426.5830429295353,-363.6405305433906,-862.151487130104,11295.029377344774,0.0,0.0,0.0,0.0,140.38,146.44,139.31,143.38,150.18,Open
192,-485.65870352491186,-420.65983064887894,-925.473979171989,11249.878853545051,0.0,0.0,0.0,0.0,140.38,146.44,139.31,143.38,150.18,Open
193,-524.3048696881377,-454.1650955873842,-975.7430524519746,11002.377987191438,0.0,0.0,0.0,0.0,140.38,146.44,139.31,143.38,150.18,Open
194,-498.26508739770503,-427.3430022410157,-950.1950085395586,10861.539645378549,0.0,0.0,0.0,0.0,140.38,146.44,139.31,143.38,150.18,Open
195,-434.9425953558201,-366.1886294112956,-874.4225948360676,11067.823894956577,0.0,0.0,0.0,0.0,140.38,146.44,139.31,143.38,150.18,Open
196,-423.36439172797105,-360.466582830737,-860.251588851403,11298.113918079604,0.0,0.0,0.0,0.0,140.38,146.44,139.31,143.38,150.18,Open
197,-468.3584533165042,-403.8736705629433,-915.3933424226454,11252.203434968404,0.0,0.0,0.0,0.0,140.38,146.44,139.31,143.38,150.18,Open
198,-506.3117154016156,-439.81527564707704,-964.85775290224,11001.528620902136,0.0,0.0,0.0,0.0,140.38,146.44,139.31,143.38,150.18,Open
199,-479.37786333297055,-411.4062084443818,-938.1250665336928,10863.081915745965,0.0,0.0,0.0,0.0,140.38,146.44,139.31,143.38,150.18,Open
200,-418.4693596922588,-354.8786467169102,-865.9289319430509,11074.037679915153,0.0,0.0,0.0,0.0,140.38,146.44,139.31,143.38,150.18,Open
201,-401.9514205397869,-344.19451286727343,-845.8123619332746,11298.560952968712,0.0,0.0,0.0,0.0,140.38,146.44,139.31,143.38,150.18,Open
202,-449.270063551672,-393.368350668949,-898.1601474476037,11250.884682045542,0.0,0.0,0.0,0.0,140.38,146.44,139.31,143.38,150.18,Open
203,-504.7470932897441,-444.44208674932565,-965.0365668578823,10999.762833090166,0.0,0.0,0.0,0.0,140.38,146.44,139.31,143.38,150.18,Open
204,-473.0299679076634,-411.1156357664628,-935.442857199056,10863.752468079623,0.0,0.0,0.0,0.0,140.38,146.44,139.31,143.38,150.18,Open
205,-393.3236471800384,-336.1478848633629,-848.4945712679114,11074.57412178208,0.0,0.0,0.0,0.0,140.38,146.44,139.31,143.38,150.18,Open
206,-381.52192610763626,-329.4870650156814,-834.5247309833445,11298.605656457625,0.0,0.0,0.0,0.0,140.38,146.44,139.31,143.38,150.18,Open
207,-425.7113248957783,-374.9952167266866,-885.1737839190703,11249.61063261159,0.0,0.0,0.0,0.0,140.53,146.38,139.73,144.65,151.84,Open
208,-476.2709708536829,-419.7434091262113,-945.4564387150334,10995.13602198792,0.0,0.0,0.0,0.0,140.53,146.38,139.73,144.65,151.84,Open
209,-462.9046276694093,-406.91350780886506,-931.37483970819,10860.802037811523,0.0,0.0,0.0,0.0,140.53,146.38,139.73,144.65,151.84,Open
210,-402.6443246179014,-348.3966408248712,-860.2739405958582,11076.675185760878,0.0,0.0,0.0,0.0,140.53,146.38,139.73,144.65,151.84,Open
211,-385.0311499871195,-334.42680054030427,-843.0407456208164,11300.259685547317,0.0,0.0,0.0,0.0,140.53,146.38,139.73,144.65,151.84,Open
212,-432.7297726547447,-382.5501063525804,-895.2544206684138,11246.257870943293,0.0,0.0,0.0,0.0,140.53,146.38,139.73,144.65,151.84,Open
213,-476.1815638758617,-424.303164995094,-949.7032701615418,10994.487821398714,0.0,0.0,0.0,0.0,140.53,146.38,139.73,144.65,151.84,Open
214,-439.0329645911413,-388.0709872330412,-916.2427087119472,10864.9147587913,0.0,0.0,0.0,0.0,140.53,146.38,139.73,144.65,151.84,Open
215,-367.820306756533,-321.9098236453323,-837.4528095069898,11078.977415439776,0.0,0.0,0.0,0.0,140.53,146.38,139.73,144.65,151.84,Open
216,-364.33343462150515,-318.82528291049994,-829.1603123140708,11300.840830903153,0.0,0.0,0.0,0.0,140.53,146.38,139.73,144.65,151.84,Open
217,-412.2332229892282,-367.26151314515033,-880.6810832835536,11246.570795365667,0.0,0.0,0.0,0.0,140.53,146.38,139.73,144.65,151.84,Open
218,-445.47026699426976,-403.27017346265,-933.051220542338,10995.6948155993,0.0,0.0,0.0,0.0,140.53,146.38,139.73,144.65,151.84,Open
219,-426.51598769616936,-383.690045319801,-911.861766798707,10865.942939036244,0.0,0.0,0.0,0.0,140.53,146.38,139.73,144.65,151.84,Open
220,-361.0253764421197,-319.7417044331675,-833.0942193382049,11079.580912540068,0.0,0.0,0.0,0.0,140.53,146.38,139.73,144.65,151.84,Open
221,-347.36846057992705,-311.94094561826535,-819.9066901095737,11301.690197192454,0.0,0.0,0.0,0.0,140.53,146.38,139.73,144.65,151.84,Open
222,-385.3664261539491,-355.1021641614633,-870.2651703673805,11246.727257576857,0.0,0.0,0.0,0.0,140.53,146.38,139.73,144.65,151.84,Open
223,-438.89885412440947,-405.594754886002,-930.078438529782,10991.090356241508,0.0,0.0,0.0,0.0,140.53,146.38,139.73,144.65,151.84,Open
224,-417.91056608087615,-379.7114348067563,-905.603278351221,10865.29473844704,0.0,0.0,0.0,0.0,140.53,146.38,139.73,144.65,151.84,Open
225,-333.6221377399132,-303.04495132505315,-820.1525592985821,11083.33600560856,0.0,0.0,0.0,0.0,140.53,146.38,139.73,144.65,151.84,Open
226,-337.0643063860305,-308.18585254977376,-817.6268121751324,11303.94772338244,0.0,0.0,0.0,0.0,140.53,146.38,139.73,144.65,151.84,Open
227,-375.7775277826223,-348.03901291358625,-870.1981151340145,11244.22386219786,0.0,0.0,0.0,0.0,140.53,146.38,139.73,144.65,151.84,Open
228,-422.09034229401857,-392.20605995727306,-925.473979171989,10989.995120763198,0.0,0.0,0.0,0.0,140.53,146.38,139.73,144.65,151.84,Open
229,-395.625876858935,-367.3956236118822,-899.0989207147265,10867.015822770098,0.0,0.0,0.0,0.0,140.53,146.38,139.73,144.65,151.84,Open
230,-321.7980649230558,-296.92057334429904,-817.2691842638475,11086.800525999131,0.0,0.0,0.0,0.0,140.53,146.38,139.73,144.65,151.84,Open
231,-319.51818698861445,-297.92640184478785,-811.8153586167525,11303.52304023779,0.0,0.0,0.0,0.0,140.53,146.38,139.73,144.65,151.84,Open
232,-370.3460538799827,-350.20713212575106,-867.2253331214587,11244.380324409049,0.0,0.0,0.0,0.0,141.02,146.73,140.36,145.33,152.6,Open
233,-428.28177550813865,-401.3479234394936,-929.6090518962208,10986.21767595025,0.0,0.0,0.0,0.0,141.02,146.73,140.36,145.33,152.6,Open
234,-389.03211224461944,-363.6405305433906,-899.1883276925478,10865.607662869414,0.0,0.0,0.0,0.0,141.02,146.73,140.36,145.33,152.6,Open
235,-296.339427988461,-280.04500628054217,-805.9815533139174,11088.722776022289,0.0,0.0,0.0,0.0,141.02,146.73,140.36,145.33,152.6,Open
236,-304.1178350589079,-290.147994774341,-802.2488119898811,11303.008950115318,0.0,0.0,0.0,0.0,141.02,146.73,140.36,145.33,152.6,Open
237,-356.9350072067985,-340.14884712086285,-857.9493591725063,11241.586356352134,0.0,0.0,0.0,0.0,141.02,146.73,140.36,145.33,152.6,Open
238,-405.81827233055503,-385.433481387315,-917.2261854679806,10985.904751527876,0.0,0.0,0.0,0.0,141.02,146.73,140.36,145.33,152.6,Open
239,-371.06130970255253,-353.8504664719661,-883.3632926181904,10869.519218149091,0.0,0.0,0.0,0.0,141.02,146.73,140.36,145.33,152.6,Open
240,-301.79325363555597,-289.2315732516734,-807.2779544923252,11096.970569726298,0.0,0.0,0.0,0.0,141.02,146.73,140.36,145.33,152.6,Open
241,-285.61059064991366,-278.7486051021344,-792.6152101296437,11308.775700184788,0.0,0.0,0.0,0.0,141.02,146.73,140.36,145.33,152.6,Open
242,-343.92629193380975,-334.42680054030427,-854.3060248262913,11238.770036550766,0.0,0.0,0.0,0.0,141.02,146.73,140.36,145.33,152.6,Open
243,-386.7969377990887,-371.1954201692844,-910.408903409112,10977.902827012877,0.0,0.0,0.0,0.0,141.02,146.73,140.36,145.33,152.6,Open
244,-358.1643531518404,-343.90394018935444,-879.0717576827715,10863.528950635073,0.0,0.0,0.0,0.0,141.02,146.73,140.36,145.33,152.6,Open
245,-296.51824194410347,-287.4657854397041,-803.9251928240291,11095.897685992442,0.0,0.0,0.0,0.0,141.02,146.73,140.36,145.33,152.6,Open
246,-281.2296487366735,-276.69224461224616,-787.0943292491829,11309.356845540626,0.0,0.0,0.0,0.0,141.02,146.73,140.36,145.33,152.6,Open
247,-325.15082659135186,-320.25579455563957,-839.3974112746014,11238.166539450473,0.0,0.0,0.0,0.0,141.02,146.73,140.36,145.33,152.6,Open
248,-370.6366265579017,-361.919446220332,-897.7578160474081,10974.952396744777,0.0,0.0,0.0,0.0,141.36,146.76,139.83,144.35,151.57,Open
249,-346.4967425461701,-337.6007482529579,-871.1368884011374,10863.081915745965,0.0,0.0,0.0,0.0,141.36,146.76,139.83,144.35,151.57,Open
250,-278.5250876575813,-273.115965499397,-795.1856607420041,11099.496316849749,0.0,0.0,0.0,0.0,141.36,146.76,139.83,144.35,151.57,Open
251,-267.1704014742853,-265.4940206401373,-784.769747825831,11312.664903720011,0.0,0.0,0.0,0.0,141.36,146.76,139.83,144.35,151.57,Open
252,-318.0653235990195,-315.07018984200835,-840.1126670971713,11237.875966772554,0.0,0.0,0.0,0.0,141.36,146.76,139.83,144.35,151.57,Open
253,-361.4724113312258,-354.3869083388935,-892.2369351669473,10973.7901060331,0.0,0.0,0.0,0.0,141.36,146.76,139.83,144.35,151.57,Open
254,-323.92148064630993,-316.56775672051396,-854.1048591261934,10863.8642268019,0.0,0.0,0.0,0.0,141.36,146.76,139.83,144.35,151.57,Open
255,-264.91287528429933,-262.2753694385731,-780.4335094015014,11098.490488349258,0.0,0.0,0.0,0.0,141.36,146.76,139.83,144.35,151.57,Open
256,-255.86041877989996,-259.3025874260172,-775.024387243317,11309.558011240722,0.0,0.0,0.0,0.0,141.36,146.76,139.83,144.35,151.57,Open
257,-309.68341942827936,-310.0410473395643,-836.379925773135,11236.04312372722,0.0,0.0,0.0,0.0,141.36,146.76,139.83,144.35,151.57,Open
258,-357.337338606994,-356.1973996397733,-889.3088566433021,10971.331414143016,0.0,0.0,0.0,0.0,141.36,146.76,139.83,144.35,151.57,Open
259,-322.8485969124552,-320.61342246692453,-857.7705452168639,10866.546436136538,0.0,0.0,0.0,0.0,141.36,146.76,139.83,144.35,151.57,Open
260,-246.67385180876877,-246.58444483094752,-775.5831808546998,11103.206706429328,0.0,0.0,0.0,0.0,141.36,146.76,139.83,144.35,151.57,Open
261,-253.7817065455564,-255.9721775021765,-774.4655936319344,11312.24022057536,0.0,0.0,0.0,0.0,141.36,146.76,139.83,144.35,151.57,Open
262,-304.78838739256713,-308.5434804610587,-834.1000478386936,11232.958582992384,0.0,0.0,0.0,0.0,141.36,146.76,139.83,144.35,151.57,Open
263,-349.6259867699131,-351.2576641151505,-888.6383043096429,10968.090411196998,0.0,0.0,0.0,0.0,141.36,146.76,139.83,144.35,151.57,Open
264,-309.146977561352,-308.47642522769274,-848.9863096459281,10866.501732647626,0.0,0.0,0.0,0.0,141.36,146.76,139.83,144.35,151.57,Open
265,-238.7389825271347,-243.0081657180984,-771.0457767302725,11104.748976796744,0.0,0.0,0.0,0.0,141.7,146.73,140.13,145.01,152.33,Open
266,-238.51546508258167,-245.8691890083777,-768.832954029197,11312.575496742187,0.0,0.0,0.0,0.0,141.7,146.73,140.13,145.01,152.33,Open
267,-289.2539249961287,-296.42883496628224,-826.2322337904255,11233.785597537231,0.0,0.0,0.0,0.0,141.7,146.73,140.13,145.01,152.33,Open
268,-329.4200097823155,-331.7445912056674,-877.3059698708022,10967.6880797968,0.0,0.0,0.0,0.0,141.7,146.73,140.13,145.01,152.33,Open
269,-297.0993872999415,-302.10617805793026,-844.538312499322,10866.948767536733,0.0,0.0,0.0,0.0,141.7,146.73,140.13,145.01,152.33,Open
270,-232.14521791281916,-240.8623982503889,-769.9505412519624,11106.604171586534,0.0,0.0,0.0,0.0,141.7,146.73,140.13,145.01,152.33,Open
271,-239.81186626098943,-249.15489544330785,-770.7775557968088,11310.7203019524,0.0,0.0,0.0,0.0,141.7,146.73,140.13,145.01,152.33,Open
272,-269.6067416199138,-281.85549758142207,-814.251698762381,11230.097559702106,0.0,0.0,0.0,0.0,141.7,146.73,140.13,145.01,152.33,Open
273,-310.3986752508492,-316.41129450932675,-865.9289319430509,10965.497608840182,0.0,0.0,0.0,0.0,141.7,146.73,140.13,145.01,152.33,Open
274,-277.5192591570925,-281.9672563036986,-827.9533181134842,10867.14993323683,0.0,0.0,0.0,0.0,141.7,146.73,140.13,145.01,152.33,Open
275,-219.9635171846768,-230.15591265629683,-763.2450179153702,11108.884049520975,0.0,0.0,0.0,0.0,141.7,146.73,140.13,145.01,152.33,Open
276,-226.35611609889463,-239.2530726496068,-767.6706633175211,11310.988522885862,0.0,0.0,0.0,0.0,141.7,146.73,140.13,145.01,152.33,Open
277,-276.8040033345227,-288.71748312920136,-825.1146465676602,11227.907088745484,0.0,0.0,0.0,0.0,141.7,146.73,140.13,145.01,152.33,Open
278,-317.7971026655558,-323.4073905238379,-875.1154989141821,10962.927158227822,0.0,0.0,0.0,0.0,141.7,146.73,140.13,145.01,152.33,Open
279,-285.3200179719947,-291.69026514175715,-839.8667979081629,10870.234473971665,0.0,0.0,0.0,0.0,141.7,146.73,140.13,145.01,152.33,Open
280,-221.1928631297187,-233.46397083568223,-763.736756293387,11114.33787516807,0.0,0.0,0.0,0.0,141.7,146.73,140.13,145.01,152.33,Open
281,-220.2093863736852,-234.5145028250817,-761.0545469587502,11311.033226374771,0.0,0.0,0.0,0.0,141.25,146.59,140.2,144.73,151.68,Open
282,-257.6262065918692,-272.44541316573776,-809.379018471124,11226.02954221124,0.0,0.0,0.0,0.0,141.25,146.59,140.2,144.73,151.68,Open
283,-308.92346011679894,-313.9078991303324,-867.6276645216542,10959.59674830398,0.0,0.0,0.0,0.0,141.25,146.59,140.2,144.73,151.68,Open
284,-271.8195643209892,-275.3511399449277,-829.3838297586238,10867.641671614849,0.0,0.0,0.0,0.0,141.25,146.59,140.2,144.73,151.68,Open
285,-201.76919719805684,-215.0237816600539,-750.8174479982196,11114.62844784599,0.0,0.0,0.0,0.0,141.25,146.59,140.2,144.73,151.68,Open
286,-204.13848211031944,-224.45621782019353,-752.0691456877167,11311.14498509705,0.0,0.0,0.0,0.0,141.25,146.59,140.2,144.73,151.68,Open
287,-257.536799614048,-271.5513433875255,-813.44703596199,11225.336638133123,0.0,0.0,0.0,0.0,141.25,146.59,140.2,144.73,151.68,Open
288,-297.54642218904763,-302.4638059692152,-862.3973563191124,10955.461675579749,0.0,0.0,0.0,0.0,141.25,146.59,140.2,144.73,151.68,Open
289,-255.77101180207873,-262.4318316497602,-816.5539284412777,10867.216988470196,0.0,0.0,0.0,0.0,141.25,146.59,140.2,144.73,151.68,Open
290,-184.89363013430005,-198.7517116965904,-738.255767614337,11113.600267601048,0.0,0.0,0.0,0.0,141.25,146.59,140.2,144.73,151.68,Open
291,-188.17933656923017,-206.75363621159033,-741.4297153269906,11311.122633352594,0.0,0.0,0.0,0.0,141.25,146.59,140.2,144.73,151.68,Open
292,-241.86822675087777,-255.18986644624073,-800.34891371118,11221.961524720376,0.0,0.0,0.0,0.0,141.25,146.59,140.2,144.73,151.68,Open
293,-290.66208489681304,-298.0605123115197,-857.3682138166683,10952.935928456298,0.0,0.0,0.0,0.0,141.25,146.59,140.2,144.73,151.68,Open
294,-261.15778221580774,-268.24328520814004,-823.1923965445038,10865.942939036244,0.0,0.0,0.0,0.0,141.25,146.59,140.2,144.73,151.68,Open
295,-201.85860417587807,-216.56605202747016,-751.1750759095045,11111.834479789077,0.0,0.0,0.0,0.0,141.25,146.59,140.2,144.73,151.68,Open
296,-197.27649656254013,-218.51065379508185,-748.2693491303145,11310.04974961874,0.0,0.0,0.0,0.0,141.25,146.59,140.2,144.73,151.68,Open
297,-243.3881453738386,-258.74379381463456,-803.5228614238335,11219.569888063656,0.0,0.0,0.0,0.0,141.25,146.59,140.2,144.73,151.68,Open
298,-286.1246807723857,-291.4667476972041,-855.2671498378694,10952.958280200754,0.0,0.0,0.0,0.0,141.25,146.59,140.2,144.73,151.68,Open
299,-265.33755842895016,-270.09847999793055,-825.7628471568642,10867.172284981283,0.0,0.0,0.0,0.0,141.25,146.59,140.2,144.73,151.68,Open
300,-192.60498197138097,-208.47472053464895,-745.0283461842951,11115.321351924104,0.0,0.0,0.0,0.0,141.25,146.59,140.2,144.73,151.68,Open
301,-181.54086846600396,-201.70214196469092,-738.9486716924515,11313.201345586938,0.0,0.0,0.0,0.0,141.25,146.59,140.2,144.73,151.68,Open
302,-226.6243370323583,-245.73507854164583,-795.5209369088336,11221.916821231463,0.0,0.0,0.0,0.0,141.25,146.59,140.2,144.73,151.68,Open
303,-279.8661923248997,-287.91282032881026,-850.8638561801739,10952.935928456298,0.0,0.0,0.0,0.0,141.25,146.59,140.2,144.73,151.68,Open
304,-251.45712512220445,-253.35702340090555,-814.6763819070318,10870.212122227207,0.0,0.0,0.0,0.0,141.25,146.59,140.2,144.73,151.68,Open
305,-171.70610090566885,-186.54765922399275,-731.4608372999236,11118.741168825769,0.0,0.0,0.0,0.0,139.55,146.9,141.05,144.33,150.42,Open
306,-165.4923159470935,-189.14046158080836,-725.738790719365,11315.660037477022,0.0,0.0,0.0,0.0,139.55,146.9,141.05,144.33,150.42,Open
307,-219.6952962512131,-237.084953437442,-785.8202798152304,11221.02275145325,0.0,0.0,0.0,0.0,139.55,146.9,141.05,144.33,150.42,Open
308,-261.53776187154796,-270.1878869757518,-835.7093734394757,10948.622041776423,0.0,0.0,0.0,0.0,139.55,146.9,141.05,144.33,150.42,Open
309,-225.99848818760972,-234.26863363607333,-796.1020822646716,10869.273348960083,0.0,0.0,0.0,0.0,139.55,146.9,141.05,144.33,150.42,Open
310,-173.31542650645096,-189.52044123654855,-728.6445174985549,11115.81309030212,0.0,0.0,0.0,0.0,139.55,146.9,141.05,144.33,150.42,Open
311,-168.1074700483644,-193.7225691941463,-725.3588110636248,11311.86024091962,0.0,0.0,0.0,0.0,139.55,146.9,141.05,144.33,150.42,Open
312,-219.49413055111535,-235.05094469200907,-785.7979280707751,11214.518393816756,0.0,0.0,0.0,0.0,139.55,146.9,141.05,144.33,150.42,Open
313,-255.90512226881057,-264.890523539844,-834.2118065609702,10945.001059174663,0.0,0.0,0.0,0.0,139.55,146.9,141.05,144.33,150.42,Open
314,-214.5767467709478,-227.5631102994812,-793.1963554854817,10871.240302472152,0.0,0.0,0.0,0.0,139.55,146.9,141.05,144.33,150.42,Open
315,-155.21051349765224,-177.2716852750403,-721.8272354396863,11124.753788084245,0.0,0.0,0.0,0.0,139.55,146.9,141.05,144.33,150.42,Open
316,-168.0627665594538,-191.91207789326643,-728.4210000540019,11313.29075256476,0.0,0.0,0.0,0.0,139.55,146.9,141.05,144.33,150.42,Open
317,-224.83619747593377,-241.1976744172185,-790.9164775510404,11213.579620549634,0.0,0.0,0.0,0.0,139.55,146.9,141.05,144.33,150.42,Open
318,-261.20248570471836,-268.9138375417993,-838.5927484742103,10944.822245219022,0.0,0.0,0.0,0.0,139.55,146.9,141.05,144.33,150.42,Open
319,-229.03832543353147,-236.83908424843364,-802.2935154787917,10869.832142571468,0.0,0.0,0.0,0.0,139.55,146.9,141.05,144.33,150.42,Open
320,-161.20078101167454,-181.85379288837825,-725.0011831523399,11124.01618051722,0.0,0.0,0.0,0.0,139.55,146.9,141.05,144.33,150.42,Open
321,-162.56423742344828,-186.59236271290337,-726.252880841837,11312.642551975556,0.0,0.0,0.0,0.0,139.55,146.9,141.05,144.33,150.42,Open
322,-219.06944740646452,-236.90613948179956,-786.736701337898,11211.925591459942,0.0,0.0,0.0,0.0,140.55,145.79,140.35,144.93,152.13,Open
323,-251.72534605566813,-264.0635089949976,-830.054382092283,10943.704657996255,0.0,0.0,0.0,0.0,140.55,145.79,140.35,144.93,152.13,Open
324,-208.74294146811263,-219.40472357329412,-786.8931635490851,10874.257787973618,0.0,0.0,0.0,0.0,140.55,145.79,140.35,144.93,152.13,Open
325,-136.81502781093454,-158.04918504347623,-704.5269852312786,11127.592459630068,0.0,0.0,0.0,0.0,140.55,145.79,140.35,144.93,152.13,Open
326,-139.43018191220546,-163.86063860185607,-704.3258195311809,11310.295618807748,0.0,0.0,0.0,0.0,140.55,145.79,140.35,144.93,152.13,Open
327,-203.1773570987412,-222.5786712859477,-773.4597651314456,11209.824527481143,0.0,0.0,0.0,0.0,140.55,145.79,140.35,144.93,152.13,Open
328,-243.65636630730228,-255.0781077239642,-824.1535215560821,10942.430608562305,0.0,0.0,0.0,0.0,140.55,145.79,140.35,144.93,152.13,Open
329,-210.32991532443947,-220.45525556269357,-787.6978263494761,10874.324843206983,0.0,0.0,0.0,0.0,140.55,145.79,140.35,144.93,152.13,Open
330,-145.2639872150406,-164.77706012452367,-712.5065580018232,11128.240660219271,0.0,0.0,0.0,0.0,140.55,145.79,140.35,144.93,152.13,Open
331,-147.5215134050266,-169.47092646013814,-709.8914039005523,11310.452081018935,0.0,0.0,0.0,0.0,140.55,145.79,140.35,144.93,152.13,Open
332,-199.2658018190625,-214.2638223485735,-769.7717272963199,11208.461071069369,0.0,0.0,0.0,0.0,140.55,145.79,140.35,144.93,152.13,Open
333,-245.95859598619893,-254.49696236812625,-826.8357308907189,10939.92721318331,0.0,0.0,0.0,0.0,140.55,145.79,140.35,144.93,152.13,Open
334,-199.95870589717697,-209.10056937939757,-778.0865762336941,10875.308319963016,0.0,0.0,0.0,0.0,140.55,145.79,140.35,144.93,152.13,Open
335,-135.4292196547055,-152.72946986311317,-700.2130985514043,11130.744055598268,0.0,0.0,0.0,0.0,140.55,145.79,140.35,144.93,152.13,Open
336,-134.4233911542167,-156.9986530540768,-699.319028773192,11311.323799052692,0.0,0.0,0.0,0.0,140.55,145.79,140.35,144.93,152.13,Open
337,-188.08992959140895,-202.1938803427077,-761.0992504476608,11208.349312347093,0.0,0.0,0.0,0.0,140.55,145.79,140.35,144.93,152.13,Open
338,-236.88378773734425,-241.71176453969056,-815.3245824962357,10936.865024192934,0.0,0.0,0.0,0.0,140.55,145.79,140.35,144.93,152.13,Open
339,-197.76823494055688,-204.89844142179984,-770.218762185426,10875.129506007375,0.0,0.0,0.0,0.0,141.25,146.61,140.08,145.17,152.11,Open
340,-129.61776609632565,-145.19693198167468,-693.3287612591698,11129.224136975305,0.0,0.0,0.0,0.0,141.25,146.61,140.08,145.17,152.11,Open
341,-138.44670515617196,-160.53022867801533,-702.5823834636669,11309.401549029537,0.0,0.0,0.0,0.0,141.25,146.61,140.08,145.17,152.11,Open
342,-191.1744703262413,-205.54664201100377,-761.0321952142949,11203.431928566924,0.0,0.0,0.0,0.0,141.25,146.61,140.08,145.17,152.11,Open
343,-221.5504910410036,-228.5018835666041,-805.4898149359007,10936.775617215111,0.0,0.0,0.0,0.0,141.25,146.61,140.08,145.17,152.11,Open
344,-175.17062129624145,-186.7264731796352,-758.998186468862,10879.555151409526,0.0,0.0,0.0,0.0,141.25,146.61,140.08,145.17,152.11,Open
345,-117.83839676837884,-137.41852491122782,-689.0148745792956,11136.82373009011,0.0,0.0,0.0,0.0,141.25,146.61,140.08,145.17,152.11,Open
346,-138.35729817835073,-159.23382749960751,-703.387046264058,11313.402511287037,0.0,0.0,0.0,0.0,141.25,146.61,140.08,145.17,152.11,Open
347,-194.3260662944396,-210.66519149126907,-767.0448144727725,11204.348350089593,0.0,0.0,0.0,0.0,141.25,146.61,140.08,145.17,152.11,Open
348,-221.2599183630846,-229.19478764471864,-805.5121666803559,10936.015657903632,0.0,0.0,0.0,0.0,141.25,146.61,140.08,145.17,152.11,Open
349,-188.08992959140895,-194.3260662944396,-765.0108057273395,10877.878770575378,0.0,0.0,0.0,0.0,141.25,146.61,140.08,145.17,152.11,Open
350,-122.8451875263676,-138.64787085626972,-690.1324618020609,11136.48845392328,0.0,0.0,0.0,0.0,141.25,146.61,140.08,145.17,152.11,Open
351,-130.6906498301804,-149.734336106102,-695.4521769824239,11311.90494440853,0.0,0.0,0.0,0.0,141.25,146.61,140.08,145.17,152.11,Open
352,-189.47573774763796,-201.23275533112948,-758.0147097128284,11204.840088467608,0.0,0.0,0.0,0.0,141.25,146.61,140.08,145.17,152.11,Open
353,-220.0305724180427,-222.4892643081265,-801.6453148895878,10934.987477658688,0.0,0.0,0.0,0.0,141.25,146.61,140.08,145.17,152.11,Open
354,-170.96849333864373,-177.96458935315482,-752.2926631322698,10880.695090376748,0.0,0.0,0.0,0.0,141.25,146.61,140.08,145.17,152.11,Open
355,-112.25046065455209,-128.07549572890946,-679.0907000411391,11139.081256280097,0.0,0.0,0.0,0.0,141.25,146.61,140.08,145.17,152.11,Open
356,-133.95400452065522,-151.54482740698188,-694.2228310373821,11310.80970893022,0.0,0.0,0.0,0.0,141.25,146.61,140.08,145.17,152.11,Open
357,-193.43199651622731,-201.79154894251215,-757.2994538902586,11198.246323853296,0.0,0.0,0.0,0.0,141.25,146.61,140.08,145.17,152.11,Open
358,-215.71668573816845,-219.24826136210697,-796.6608758760543,10929.69011422278,0.0,0.0,0.0,0.0,141.25,146.61,140.08,145.17,152.11,Open
359,-171.14730729428618,-177.29403701949562,-746.1682851515156,10879.376337453885,0.0,0.0,0.0,0.0,141.25,146.61,140.08,145.17,152.11,Open
360,-105.52258557350464,-121.45937937013858,-668.5853801471449,11139.505939424747,0.0,0.0,0.0,0.0,141.25,146.61,140.08,145.17,152.11,Open
361,-122.8451875263676,-140.92774879071104,-681.482336697857,11312.262572319814,0.0,0.0,0.0,0.0,141.25,146.61,140.08,145.17,152.11,Open
362,-188.33579878041732,-197.07533086244237,-749.4986950753564,11198.536896531212,0.0,0.0,0.0,0.0,141.25,146.61,140.08,145.17,152.11,Open
363,-219.09179915091983,-221.97517418565445,-793.8892595635963,10928.125492110908,0.0,0.0,0.0,0.0,141.25,146.61,140.08,145.17,152.11,Open
364,-172.22019102814093,-181.7196824216464,-743.6201862836107,10879.95748280972,0.0,0.0,0.0,0.0,140.97,146.2,139.85,145.12,151.99,Open
365,-115.40205662275037,-132.38938240878375,-675.0673860391839,11140.7799888587,0.0,0.0,0.0,0.0,140.97,146.2,139.85,145.12,151.99,Open
366,-127.38259165079496,-146.42627792671658,-685.3268367441699,11311.726130452887,0.0,0.0,0.0,0.0,140.97,146.2,139.85,145.12,151.99,Open
367,-180.15506030977497,-193.54375523850385,-745.4083258400352,11198.067509897652,0.0,0.0,0.0,0.0,140.97,146.2,139.85,145.12,151.99,Open
368,-214.64380200431373,-223.6515550198025,-785.6861693484985,10928.170195599818,0.0,0.0,0.0,0.0,140.97,146.2,139.85,145.12,151.99,Open
369,-164.73235663561306,-174.16479279575265,-732.578424522689,10880.784497354569,0.0,0.0,0.0,0.0,140.97,146.2,139.85,145.12,151.99,Open
370,-97.96769594761084,-116.83256826789,-661.1422492435277,11141.651706892457,0.0,0.0,0.0,0.0,140.97,146.2,139.85,145.12,151.99,Open
371,-107.19896640765268,-129.4836556295938,-671.7816796042538,11312.70960720892,0.0,0.0,0.0,0.0,140.97,146.2,139.85,145.12,151.99,Open
372,-180.57974345442577,-193.6555139607804,-744.3577938506357,11194.334768573615,0.0,0.0,0.0,0.0,140.97,146.2,139.85,145.12,151.99,Open
373,-207.3347815674283,-218.0412671615204,-782.512221635845,10925.35387579845,0.0,0.0,0.0,0.0,140.97,146.2,139.85,145.12,151.99,Open
374,-162.45247870117174,-173.1589642952638,-731.5055407888342,10884.025500300588,0.0,0.0,0.0,0.0,140.97,146.2,139.85,145.12,151.99,Open
375,-108.5624228194264,-127.58375735089272,-664.2714934672706,11146.01029706124,0.0,0.0,0.0,0.0,140.97,146.2,139.85,145.12,151.99,Open
376,-113.07747519939844,-136.63621385529208,-668.8536010806085,11312.866069420108,0.0,0.0,0.0,0.0,140.97,146.2,139.85,145.12,151.99,Open
377,-173.02485382853197,-187.6428947023028,-731.7290582333873,11194.066547640152,0.0,0.0,0.0,0.0,140.97,146.2,139.85,145.12,151.99,Open
378,-201.2998105644954,-211.87218569185563,-770.4869831188897,10924.21393683123,0.0,0.0,0.0,0.0,140.97,146.2,139.85,145.12,151.99,Open
379,-159.99378681108794,-172.17548753923032,-719.3908952940578,10884.047852045042,0.0,0.0,0.0,0.0,140.97,146.2,139.85,145.12,151.99,Open
380,-104.7179227731136,-127.2261294396078,-650.7486880718099,11146.457331950349,0.0,0.0,0.0,0.0,139.87,146.16,139.29,144.12,150.48,Open
381,-113.34569613286212,-138.84903655636748,-660.5834556321449,11311.86024091962,0.0,0.0,0.0,0.0,139.87,146.16,139.29,144.12,150.48,Open
382,-159.8596763443561,-180.6467986877917,-714.674677213988,11192.434870294914,0.0,0.0,0.0,0.0,139.87,146.16,139.29,144.12,150.48,Open
383,-202.77502569854568,-218.17537762825225,-759.9369597359848,10921.241154818674,0.0,0.0,0.0,0.0,139.87,146.16,139.29,144.12,150.48,Open
384,-158.2279989991187,-173.89657186228894,-707.7903399217535,10883.95844506722,0.0,0.0,0.0,0.0,139.87,146.16,139.29,144.12,150.48,Open
385,-90.90454469973382,-117.3690101348174,-634.5213215972569,11149.318355240626,0.0,0.0,0.0,0.0,139.87,146.16,139.29,144.12,150.48,Open
386,-97.27479186949634,-126.75674280604636,-643.4173158904691,11311.27909556378,0.0,0.0,0.0,0.0,139.87,146.16,139.29,144.12,150.48,Open
387,-148.01325178304336,-167.81689737044542,-701.2189270518932,11190.087937127106,0.0,0.0,0.0,0.0,139.87,146.16,139.29,144.12,150.48,Open
388,-185.63123770132515,-196.8741651623446,-743.1507996500492,10919.58712572898,0.0,0.0,0.0,0.0,139.87,146.16,139.29,144.12,150.48,Open
389,-151.41071694025004,-167.95100783717726,-702.80590090822,10884.740756123158,0.0,0.0,0.0,0.0,139.87,146.16,139.29,144.12,150.48,Open
390,-101.16399540471976,-122.37580089280615,-641.2939001672149,11150.34653548557,0.0,0.0,0.0,0.0,139.87,146.16,139.29,144.12,150.48,Open
391,-105.7013995291471,-130.78005680800163,-647.7312025703434,11311.748482197345,0.0,0.0,0.0,0.0,139.87,146.16,139.29,144.12,150.48,Open
392,-149.62257738382547,-174.56712419594817,-699.9225258734854,11184.678814968922,0.0,0.0,0.0,0.0,139.87,146.16,139.29,144.12,150.48,Open
393,-189.85571740337815,-207.46889203416015,-749.5881020531776,10916.34612278296,0.0,0.0,0.0,0.0,139.87,146.16,139.29,144.12,150.48,Open
394,-150.9860337955992,-170.45440321617167,-705.8904416430523,10888.54055268056,0.0,0.0,0.0,0.0,139.87,146.16,139.29,144.12,150.48,Open
395,-94.10084415684274,-123.89571951576706,-638.3658216435697,11154.280442509706,0.0,0.0,0.0,0.0,139.87,146.16,139.29,144.12,150.48,Open
396,-109.8141205089236,-141.06185925744288,-648.8711415375641,11312.351979297637,0.0,0.0,0.0,0.0,140.37,146.62,139.96,145.24,152.17,Open
397,-153.91411231924442,-176.77994689702356,-700.0789880846725,11186.73517545881,0.0,0.0,0.0,0.0,140.37,146.62,139.96,145.24,152.17,Open
398,-189.5651447254592,-204.96549665516577,-747.1517619075491,10918.335428039483,0.0,0.0,0.0,0.0,140.37,146.62,139.96,145.24,152.17,Open
399,-144.86165581484508,-167.01223457005435,-700.7942439072424,10888.652311402837,0.0,0.0,0.0,0.0,140.37,146.62,139.96,145.24,152.17,Open
400,-86.74712023104671,-118.73246654659113,-627.7934465162094,11154.705125654356,0.0,0.0,0.0,0.0,140.37,146.62,139.96,145.24,152.17,Open
401,-105.0308471954879,-136.92678653321107,-642.8585222790864,11311.077929863684,0.0,0.0,0.0,0.0,140.37,146.62,139.96,145.24,152.17,Open
402,-157.6468536432807,-186.10062433488665,-705.6892759429546,11182.60010273458,0.0,0.0,0.0,0.0,140.37,146.62,139.96,145.24,152.17,Open
403,-181.94319986619948,-198.19291808520776,-742.0555641717392,10915.943791382766,0.0,0.0,0.0,0.0,140.37,146.62,139.96,145.24,152.17,Open
404,-148.90732156125566,-164.12885953531975,-696.8156333941977,10889.479325947685,0.0,0.0,0.0,0.0,140.37,146.62,139.96,145.24,152.17,Open
405,-78.70049222713617,-110.1270449312979,-620.4397225904135,11155.82271287712,0.0,0.0,0.0,0.0,140.37,146.62,139.96,145.24,152.17,Open
406,-86.12127138629812,-121.74995204805757,-630.676821550944,11310.183860085472,0.0,0.0,0.0,0.0,140.37,146.62,139.96,145.24,152.17,Open
407,-141.93357729119984,-170.2532375160739,-695.2063077934156,11181.504867256268,0.0,0.0,0.0,0.0,140.37,146.62,139.96,145.24,152.17,Open
408,-187.0617493464648,-206.79833970050095,-743.351965350147,10911.652256447347,0.0,0.0,0.0,0.0,140.37,146.62,139.96,145.24,152.17,Open
409,-149.51081866154894,-172.53311545051525,-695.1392525600496,10888.898180591845,0.0,0.0,0.0,0.0,140.37,146.62,139.96,145.24,152.17,Open
410,-91.1057103998316,-120.5653095919263,-625.2676993927598,11154.191035531883,0.0,0.0,0.0,0.0,140.37,146.62,139.96,145.24,152.17,Open
411,-104.74027451756888,-135.25040569906304,-637.2035309318937,11307.054615861727,0.0,0.0,0.0,0.0,140.37,146.62,139.96,145.24,152.17,Open
412,-162.76540312354604,-189.43103425872735,-704.5269852312786,11179.716727699844,0.0,0.0,0.0,0.0,140.37,146.62,139.96,145.24,152.17,Open
413,-184.26778128955144,-204.85373793288923,-739.4180583260129,10911.831070402988,0.0,0.0,0.0,0.0,140.61,146.46,139.63,144.05,150.4,Open
414,-132.5458446199709,-156.50691467606006,-681.8176128646867,10891.222762015195,0.0,0.0,0.0,0.0,140.61,146.46,139.63,144.05,150.4,Open
415,-76.75589045952445,-108.98710596407724,-614.2482893762934,11159.197826289872,0.0,0.0,0.0,0.0,140.61,146.46,139.63,144.05,150.4,Open
416,-97.38655059177287,-131.85294054185636,-635.3706878865586,11309.602714729634,0.0,0.0,0.0,0.0,140.61,146.46,139.63,144.05,150.4,Open
417,-154.04822278597626,-182.6137521998587,-698.3579037616139,11176.475724753824,0.0,0.0,0.0,0.0,140.61,146.46,139.63,144.05,150.4,Open
418,-184.73716792311288,-207.6924094787132,-737.1381803915716,10907.628942445392,0.0,0.0,0.0,0.0,140.61,146.46,139.63,144.05,150.4,Open
419,-134.7586673210463,-160.99961531157678,-680.9235430864744,10892.362700982416,0.0,0.0,0.0,0.0,140.61,146.46,139.63,144.05,150.4,Open
420,-79.92983817217805,-113.90448974424478,-615.9023184659861,11161.812980391143,0.0,0.0,0.0,0.0,140.61,146.46,139.63,144.05,150.4,Open
421,-98.7947104924572,-135.60803361034797,-631.5038360957905,11308.887458907064,0.0,0.0,0.0,0.0,140.61,146.46,139.63,144.05,150.4,Open
422,-145.33104244840652,-175.6623596742582,-687.3608454896028,11173.413535763448,0.0,0.0,0.0,0.0,140.61,146.46,139.63,144.05,150.4,Open
423,-186.61471445735867,-207.4241885452495,-734.1653983790158,10904.857326132931,0.0,0.0,0.0,0.0,140.61,146.46,139.63,144.05,150.4,Open
424,-143.90053080326686,-168.6439119152918,-686.3997204780246,10890.641616659355,0.0,0.0,0.0,0.0,140.61,146.46,139.63,144.05,150.4,Open
425,-83.70728298512495,-119.38066713579502,-617.2210713888493,11163.042326336184,0.0,0.0,0.0,0.0,140.61,146.46,139.63,144.05,150.4,Open
426,-107.71305653012472,-143.6993651031691,-639.1928361884161,11307.434595517469,0.0,0.0,0.0,0.0,140.61,146.46,139.63,144.05,150.4,Open
427,-151.12014426233105,-185.20655455667432,-691.8088426362089,11172.251245051772,0.0,0.0,0.0,0.0,140.61,146.46,139.63,144.05,150.4,Open
428,-187.3523220243838,-210.53108102453723,-732.6454797560549,10903.471517976704,0.0,0.0,0.0,0.0,140.61,146.46,139.63,144.05,150.4,Open
429,-143.0735162584205,-170.09677530488673,-682.1528890315162,10890.954541081732,0.0,0.0,0.0,0.0,140.61,146.46,139.63,144.05,150.4,Open
430,-75.9735794035887,-111.4010943652504,-606.6039927725784,11161.92473911342,0.0,0.0,0.0,0.0,140.61,146.46,139.63,144.05,150.4,Open
431,-92.02213192249916,-131.56236786393737,-622.5407865692123,11305.646455961043,0.0,0.0,0.0,0.0,140.61,146.46,139.63,144.05,150.4,Open
432,-142.47001915812723,-178.41162424226098,-682.5328686872565,11170.485457239802,0.0,0.0,0.0,0.0,140.61,146.46,139.63,144.05,150.4,Open
433,-182.9713801111436,-208.2735548345512,-726.9681366644069,10903.985608099176,0.0,0.0,0.0,0.0,140.61,146.46,139.63,144.05,150.4,Open
434,-142.06768775793168,-171.77315613903477,-678.8224791076755,10892.429756215784,0.0,0.0,0.0,0.0,140.61,146.46,139.63,144.05,150.4,Open
435,-85.51777428600482,-124.07453347140952,-615.7682079992543,11165.948053115377,0.0,0.0,0.0,0.0,140.61,146.46,139.63,144.05,150.4,Open
436,-97.4759575695941,-138.82668481191217,-627.7934465162094,11309.043921118251,0.0,0.0,0.0,0.0,140.61,146.46,139.63,144.05,150.4,Open
437,-148.28147271650707,-184.1783743117302,-683.9410285879408,11169.323166528126,0.0,0.0,0.0,0.0,142.22,147.01,139.91,144.37,151.4,Open
438,-177.5622579529593,-206.12778736684177,-722.2742703287925,10902.041006331565,0.0,0.0,0.0,0.0,142.22,147.01,139.91,144.37,151.4,Open
439,-141.35243193536186,-171.2367142721074,-677.1237465290722,10895.20137252824,0.0,0.0,0.0,0.0,142.22,147.01,139.91,144.37,151.4,Open
440,-90.09988189934278,-127.71786781762457,-613.9353649539191,11165.277500781716,0.0,0.0,0.0,0.0,142.22,147.01,139.91,144.37,151.4,Open
441,-97.31949535840695,-135.831551054901,-621.2220336463492,11305.467642005402,0.0,0.0,0.0,0.0,142.22,147.01,139.91,144.37,151.4,Open
442,-153.1318012633087,-185.22890630112963,-683.2704762542816,11165.54572171518,0.0,0.0,0.0,0.0,142.22,147.01,139.91,144.37,151.4,Open
443,-187.2405633021073,-213.6603252482802,-724.2635755853147,10899.694073163755,0.0,0.0,0.0,0.0,142.22,147.01,139.91,144.37,151.4,Open
444,-139.2290162121077,-167.95100783717726,-668.384214447047,10897.63771267387,0.0,0.0,0.0,0.0,142.22,147.01,139.91,144.37,151.4,Open
445,-89.8763644547897,-125.86267302783406,-605.9334404389192,11167.892654882986,0.0,0.0,0.0,0.0,142.22,147.01,139.91,144.37,151.4,Open
446,-90.189288877164,-133.08228648689823,-614.583565543123,11306.540525739256,0.0,0.0,0.0,0.0,142.22,147.01,139.91,144.37,151.4,Open
447,-146.4486296711719,-182.0102550995654,-673.9945023053292,11165.523369970724,0.0,0.0,0.0,0.0,142.22,147.01,139.91,144.37,151.4,Open
448,-184.93833362321064,-212.6097932588808,-719.6367644830661,10897.458898718229,0.0,0.0,0.0,0.0,142.22,147.01,139.91,144.37,151.4,Open
449,-130.75770506354633,-165.13468803580858,-663.3103684556924,10896.788346384566,0.0,0.0,0.0,0.0,142.22,147.01,139.91,144.37,151.4,Open
450,-79.81807944990152,-119.40301888025031,-602.5136235372572,11169.747849672778,0.0,0.0,0.0,0.0,142.22,147.01,139.91,144.37,151.4,Open
451,-97.02892268048797,-135.65273709925856,-618.7633417562654,11306.249953061337,0.0,0.0,0.0,0.0,142.22,147.01,139.91,144.37,151.4,Open
452,-150.24842622857406,-185.00538885657656,-678.2413337518375,11163.82463739212,0.0,0.0,0.0,0.0,142.22,147.01,139.91,144.37,151.4,Open
453,-188.2240400581408,-218.73417123963492,-722.4307325399795,10899.135279552374,0.0,0.0,0.0,0.0,142.22,147.01,139.91,144.37,151.4,Open
454,-140.07838250140935,-172.4884119616046,-665.2326184788488,10899.984645841676,0.0,0.0,0.0,0.0,141.54,146.42,140.0,145.27,152.8,Open
455,-80.6897974836585,-122.53226310399332,-599.9208211804415,11171.044250851184,0.0,0.0,0.0,0.0,141.54,146.42,140.0,145.27,152.8,Open
456,-110.17174842020852,-152.41654544073887,-628.5757575721452,11305.892325150053,0.0,0.0,0.0,0.0,141.54,146.42,140.0,145.27,152.8,Open
457,-156.90924607625558,-195.957743639677,-682.0858337981504,11163.042326336184,0.0,0.0,0.0,0.0,141.54,146.42,140.0,145.27,152.8,Open
458,-178.99276959809896,-213.57091827045895,-716.7310377038763,10900.029349330587,0.0,0.0,0.0,0.0,141.54,146.42,140.0,145.27,152.8,Open
459,-132.8811207868005,-166.3193304919399,-664.0479760227175,10902.197468542752,0.0,0.0,0.0,0.0,141.54,146.42,140.0,145.27,152.8,Open
460,-80.62274225029257,-123.96277474913298,-598.6244200020337,11175.7381171868,0.0,0.0,0.0,0.0,141.54,146.42,140.0,145.27,152.8,Open
461,-95.41959707970584,-139.83251331240098,-614.3823998430253,11307.501650750835,0.0,0.0,0.0,0.0,141.54,146.42,140.0,145.27,152.8,Open
462,-154.7187751196355,-193.0743686049424,-680.1412320305386,11159.130771056509,0.0,0.0,0.0,0.0,141.54,146.42,140.0,145.27,152.8,Open
463,-194.14725233879716,-227.11607541037503,-724.0177063963064,10893.703805649737,0.0,0.0,0.0,0.0,141.54,146.42,140.0,145.27,152.8,Open
464,-142.49237090258254,-178.8363073869118,-666.8195923351756,10901.862192375922,0.0,0.0,0.0,0.0,141.54,146.42,140.0,145.27,152.8,Open
465,-84.42253880769478,-128.56723410692624,-601.1725188699388,11176.788649176198,0.0,0.0,0.0,0.0,141.54,146.42,140.0,145.27,152.8,Open
466,-101.6110302938259,-150.9860337955992,-619.8138737456649,11307.47929900638,0.0,0.0,0.0,0.0,141.54,146.42,140.0,145.27,152.8,Open
467,-154.3834989528059,-197.07533086244237,-678.5319064297565,11158.504922211758,0.0,0.0,0.0,0.0,141.54,146.42,140.0,145.27,152.8,Open
468,-195.3318947949284,-227.11607541037503,-722.4307325399795,10892.094480048952,0.0,0.0,0.0,0.0,141.54,146.42,140.0,145.27,152.8,Open
469,-139.65369935675852,-176.44467073019396,-664.0926795116281,10903.717387165712,0.0,0.0,0.0,0.0,141.54,146.42,140.0,145.27,152.8,Open
470,-88.6246667652925,-134.93748127668874,-602.8488997040868,11178.77795443272,0.0,0.0,0.0,0.0,141.54,146.42,140.0,145.27,152.8,Open
471,-107.69070478566942,-155.3893274532947,-627.2346529048268,11304.171240826994,0.0,0.0,0.0,0.0,141.01,146.43,139.61,144.53,151.47,Open
472,-156.23869374259638,-197.90234540728872,-684.3880634770469,11157.11911405553,0.0,0.0,0.0,0.0,141.01,146.43,139.61,144.53,151.47,Open
473,-185.98886561261008,-221.77400848555664,-720.1285028610829,10893.748509138646,0.0,0.0,0.0,0.0,141.01,146.43,139.61,144.53,151.47,Open
474,-135.58568186589264,-176.28820851900682,-664.0256242782622,10906.131375566883,0.0,0.0,0.0,0.0,141.01,146.43,139.61,144.53,151.47,Open
475,-85.7859952194685,-134.35633592085077,-605.7322747388214,11181.996605634286,0.0,0.0,0.0,0.0,141.01,146.43,139.61,144.53,151.47,Open
476,-108.49536758606048,-157.49039143209356,-627.5922808161117,11305.71351119441,0.0,0.0,0.0,0.0,141.01,146.43,139.61,144.53,151.47,Open
477,-163.81593511294545,-207.80416820098975,-688.3666739900916,11153.095800053574,0.0,0.0,0.0,0.0,141.01,146.43,139.61,144.53,151.47,Open
478,-183.75369116707935,-221.66224976328013,-718.9662121494069,10892.340349237962,0.0,0.0,0.0,0.0,141.01,146.43,139.61,144.53,151.47,Open
479,-137.3514696778619,-177.96458935315482,-665.8137638346868,10908.970047112707,0.0,0.0,0.0,0.0,141.01,146.43,139.61,144.53,151.47,Open
480,-101.52162331600468,-149.33200470590648,-617.2210713888493,11180.83431492261,0.0,0.0,0.0,0.0,141.01,146.43,139.61,144.53,151.47,Open
481,-115.46911185611629,-165.06763280244266,-634.2531006637932,11303.701854193432,0.0,0.0,0.0,0.0,141.01,146.43,139.61,144.53,151.47,Open
482,-160.68669088920248,-205.47958677763785,-688.4113774790022,11153.20755877585,0.0,0.0,0.0,0.0,141.01,146.43,139.61,144.53,151.47,Open
483,-189.2522203030849,-226.75844749909015,-722.9448226624517,10891.602741670937,0.0,0.0,0.0,0.0,141.01,146.43,139.61,144.53,151.47,Open
484,-130.33302191889547,-175.6623596742582,-660.739917843332,10911.853422147444,0.0,0.0,0.0,0.0,141.01,146.43,139.61,144.53,151.47,Open
485,-79.90748642772274,-133.2163969536301,-602.9606584263634,11186.109326614062,0.0,0.0,0.0,0.0,141.01,146.43,139.61,144.53,151.47,Open
486,-104.29323962846276,-159.23382749960751,-626.4299901044358,11303.7689094268,0.0,0.0,0.0,0.0,141.01,146.43,139.61,144.53,151.47,Open
487,-171.571990438937,-221.43873231872703,-694.0663688261949,11148.223119762317,0.0,0.0,0.0,0.0,141.01,146.43,139.61,144.53,151.47,Open
488,-199.668133219258,-243.23168316265145,-729.1362558765717,10888.607607913926,0.0,0.0,0.0,0.0,141.01,146.43,139.61,144.53,151.47,Open
489,-144.07934475890931,-189.6321999588251,-668.1383452580387,10911.518145980615,0.0,0.0,0.0,0.0,141.01,146.43,139.61,144.53,151.47,Open
490,-89.2281638655858,-144.0346412699987,-608.7274084958325,11186.556361503168,0.0,0.0,0.0,0.0,141.01,146.43,139.61,144.53,151.47,Open
491,-117.3913618792727,-176.2435050300962,-635.84007452012,11305.71351119441,0.0,0.0,0.0,0.0,141.01,146.43,139.61,144.53,151.47,Open
492,-179.0821765759202,-225.6855637652354,-704.482281742368,11150.458294207849,0.0,0.0,0.0,0.0,141.01,146.43,139.61,144.53,151.47,Open
493,-192.7390924381128,-232.81577024647837,-728.8009797097421,10888.808773614022,0.0,0.0,0.0,0.0,141.01,146.43,139.61,144.53,151.47,Open
494,-135.87625454381163,-184.75951966756816,-665.4561359234019,10913.820375659512,0.0,0.0,0.0,0.0,141.01,146.43,139.61,144.53,151.47,Open
495,-89.36227433231764,-144.74989709256857,-611.1413968970057,11189.775012704731,0.0,0.0,0.0,0.0,141.01,146.43,139.61,144.53,151.47,Open
496,-114.84326301136768,-170.96849333864373,-638.5222838547569,11303.94772338244,0.0,0.0,0.0,0.0,141.3,146.73,139.42,143.86,150.38,Open
497,-167.01223457005435,-217.57188052795897,-696.5027089718234,11147.217291261828,0.0,0.0,0.0,0.0,141.3,146.73,139.42,143.86,150.38,Open
498,-186.43590050171625,-230.15591265629683,-722.6542499845326,10886.171267768295,0.0,0.0,0.0,0.0,141.3,146.73,139.42,143.86,150.38,Open
499,-142.47001915812723,-190.77213892604576,-670.6417406370331,10915.83203266049,0.0,0.0,0.0,0.0,141.3,146.73,139.42,143.86,150.38,Open
500,-88.55761153192658,-144.54873139247078,-608.6380015180113,11189.752660960276,0.0,0.0,0.0,0.0,141.3,146.73,139.42,143.86,150.38,Open
501,-117.7266380461023,-174.27655151802918,-634.7671907862652,11301.667845448,0.0,0.0,0.0,0.0,141.3,146.73,139.42,143.86,150.38,Open
502,-176.42231898573866,-227.5631102994812,-700.1460433180384,11144.82565460511,0.0,0.0,0.0,0.0,141.3,146.73,139.42,143.86,150.38,Open
503,-211.00046765809867,-251.47947686665975,-737.4958083028565,10882.192657255251,0.0,0.0,0.0,0.0,141.3,146.73,139.42,143.86,150.38,Open
504,-145.15222849276407,-190.28040054802904,-668.5406766582342,10916.323771038506,0.0,0.0,0.0,0.0,141.3,146.73,139.42,143.86,150.38,Open
505,-107.08720768537614,-158.5185716770377,-619.5680045566564,11192.12194587254,0.0,0.0,0.0,0.0,141.3,146.73,139.42,143.86,150.38,Open
506,-135.38451616579488,-188.604019713881,-648.1335339705389,11304.305351293726,0.0,0.0,0.0,0.0,141.3,146.73,139.42,143.86,150.38,Open
507,-190.3027522924843,-237.24141564862916,-709.1537963335272,11144.5797854161,0.0,0.0,0.0,0.0,141.3,146.73,139.42,143.86,150.38,Open
508,-205.21136584417417,-246.91972099777712,-729.9856221658733,10882.52793342208,0.0,0.0,0.0,0.0,141.3,146.73,139.42,143.86,150.38,Open
509,-149.7566878505573,-197.1423860958083,-668.7194906138767,10918.06720710602,0.0,0.0,0.0,0.0,141.3,146.73,139.42,143.86,150.38,Open
510,-90.39045457726176,-146.96271979364394,-603.810024715665,11195.40765230747,0.0,0.0,0.0,0.0,141.3,146.73,139.42,143.86,150.38,Open
511,-134.33398417639543,-189.78866217001223,-640.645699578011,11302.874839648586,0.0,0.0,0.0,0.0,141.3,146.73,139.42,143.86,150.38,Open
512,-176.84700213038948,-228.05484867749797,-698.8496421396306,11140.668230136424,0.0,0.0,0.0,0.0,141.06,146.95,139.55,143.82,149.96,Open
513,-199.62342973034737,-239.99068021663192,-731.2596715998259,10883.980796811677,0.0,0.0,0.0,0.0,141.06,146.95,139.55,143.82,149.96,Open
514,-155.3669757088394,-199.84694717490044,-677.2802087402594,10918.469538506217,0.0,0.0,0.0,0.0,141.06,146.95,139.55,143.82,149.96,Open
515,-104.85203323984544,-159.09971703287567,-616.3940568440029,11195.854687196575,0.0,0.0,0.0,0.0,141.06,146.95,139.55,143.82,149.96,Open
516,-118.46424561312745,-175.28238001851798,-633.4707896078575,11303.031301859774,0.0,0.0,0.0,0.0,141.06,146.95,139.55,143.82,149.96,Open
517,-179.1045283203755,-227.29488936601751,-697.128557816572,11137.561337657136,0.0,0.0,0.0,0.0,141.06,146.95,139.55,143.82,149.96,Open
518,-215.35905782688351,-254.20638969020723,-736.28881410227,10881.47740143268,0.0,0.0,0.0,0.0,141.06,146.95,139.55,143.82,149.96,Open
519,-164.30767349096223,-207.13361586733055,-680.0741767971726,10921.06234086303,0.0,0.0,0.0,0.0,141.06,146.95,139.55,143.82,149.96,Open
520,-116.31847814541796,-169.58268518241468,-623.3901528585139,11198.73806223131,0.0,0.0,0.0,0.0,141.06,146.95,139.55,143.82,149.96,Open
521,-143.29703370297358,-193.61081047186977,-648.7370310708321,11303.299522793235,0.0,0.0,0.0,0.0,141.06,146.95,139.55,143.82,149.96,Open
522,-200.09281636390884,-244.55043608551455,-713.870014413597,11137.717799868322,0.0,0.0,0.0,0.0,141.06,146.95,139.55,143.82,149.96,Open
523,-217.28130785003995,-257.42504089177146,-734.8583024571303,10880.002186298632,0.0,0.0,0.0,0.0,141.06,146.95,139.55,143.82,149.96,Open
524,-169.40387122677222,-212.0062961585875,-677.1013947846169,10922.604611230448,0.0,0.0,0.0,0.0,141.06,146.95,139.55,143.82,149.96,Open
525,-122.62167008181454,-177.18227829721909,-623.7924842587095,11198.64865525349,0.0,0.0,0.0,0.0,141.06,146.95,139.55,143.82,149.96,Open
526,-149.6672808727361,-205.4572350331825,-650.0110805047847,11302.85248790413,0.0,0.0,0.0,0.0,141.06,146.95,139.55,143.82,149.96,Open
527,-190.5262697370374,-241.66706105077995,-707.8573951551193,11136.555509156646,0.0,0.0,0.0,0.0,141.06,146.95,139.55,143.82,149.96,Open
528,-209.5029007795931,-250.987738488643,-733.6513082565438,10878.616378142402,0.0,0.0,0.0,0.0,140.56,146.76,139.97,144.91,151.58,Open
529,-160.217304255641,-207.021857145054,-671.9381418154409,10924.906840909343,0.0,0.0,0.0,0.0,140.56,146.76,139.97,144.91,151.58,Open
530,-94.90550695723378,-149.3543564503618,-607.9450974398968,11202.381396577526,0.0,0.0,0.0,0.0,140.56,146.76,139.97,144.91,151.58,Open
531,-131.45060914166083,-189.14046158080836,-640.5339408557345,11301.19845881444,0.0,0.0,0.0,0.0,140.56,146.76,139.97,144.91,151.58,Open
532,-185.72064467914635,-234.31333712498397,-698.6931799284434,11132.82276783261,0.0,0.0,0.0,0.0,140.56,146.76,139.97,144.91,151.58,Open
533,-211.20163335819643,-252.95469200071005,-733.0031076673398,10880.024538043088,0.0,0.0,0.0,0.0,140.56,146.76,139.97,144.91,151.58,Open
534,-168.21922877064097,-214.66615374876903,-680.7894326197426,10927.231422332696,0.0,0.0,0.0,0.0,140.56,146.76,139.97,144.91,151.58,Open
535,-127.11437071733128,-182.9043248777777,-627.7710947717542,11202.962541933364,0.0,0.0,0.0,0.0,140.56,146.76,139.97,144.91,151.58,Open
536,-157.15511526526396,-211.15692986928585,-654.8614090515863,11300.952589625427,0.0,0.0,0.0,0.0,140.56,146.76,139.97,144.91,151.58,Open
537,-211.3580955693836,-255.14516295733011,-715.6134504811109,11130.185261986884,0.0,0.0,0.0,0.0,140.56,146.76,139.97,144.91,151.58,Open
538,-233.19574990221855,-270.1655352312965,-743.866055472619,10876.425907185783,0.0,0.0,0.0,0.0,140.56,146.76,139.97,144.91,151.58,Open
539,-174.90240036277777,-217.01308691657627,-678.3977959630247,10927.63375373289,0.0,0.0,0.0,0.0,140.56,146.76,139.97,144.91,151.58,Open
540,-124.3427544048732,-179.68567367621347,-619.7468185122989,11205.242419867804,0.0,0.0,0.0,0.0,140.56,146.76,139.97,144.91,151.58,Open
541,-155.7246036201243,-210.64283974681376,-651.195722960916,11299.969112869396,0.0,0.0,0.0,0.0,140.56,146.76,139.97,144.91,151.58,Open
542,-223.9868311866321,-265.7398898291457,-720.7543517058316,11128.44182591937,0.0,0.0,0.0,0.0,140.56,146.76,139.97,144.91,151.58,Open
543,-228.21131088868512,-267.30451194101715,-733.964232678918,10876.671776374793,0.0,0.0,0.0,0.0,140.56,146.76,139.97,144.91,151.58,Open
544,-167.30280724797336,-209.65936299078024,-669.2782842252594,10931.366495056927,0.0,0.0,0.0,0.0,140.56,146.76,139.97,144.91,151.58,Open
545,-137.15030397776414,-187.55348772448156,-627.681687793933,11209.444547825402,0.0,0.0,0.0,0.0,139.75,146.38,140.07,144.2,150.05,Open
546,-165.93935083619962,-218.2871363505288,-657.0071765192959,11299.7679471693,0.0,0.0,0.0,0.0,139.75,146.38,140.07,144.2,150.05,Open
547,-225.6855637652354,-268.24328520814004,-721.2013865949377,11125.647857862456,0.0,0.0,0.0,0.0,139.75,146.38,140.07,144.2,150.05,Open
548,-230.6476510343136,-269.13735498635236,-739.1051339036386,10873.430773428772,0.0,0.0,0.0,0.0,139.75,146.38,140.07,144.2,150.05,Open
549,-168.6662636597471,-210.19580485770763,-670.7534993593097,10930.137149111886,0.0,0.0,0.0,0.0,139.75,146.38,140.07,144.2,150.05,Open
550,-124.6780305717028,-173.94127535119955,-616.9528504553855,11209.578658292134,0.0,0.0,0.0,0.0,139.75,146.38,140.07,144.2,150.05,Open
551,-155.25521698656286,-206.6195257448585,-647.8876647815305,11302.070176848196,0.0,0.0,0.0,0.0,139.75,146.38,140.07,144.2,150.05,Open
552,-210.55343276899256,-257.42504089177146,-709.3102585447143,11125.87137530701,0.0,0.0,0.0,0.0,139.75,146.38,140.07,144.2,150.05,Open
553,-237.3308226264504,-273.0936137549417,-740.4238868265018,10870.972081538688,0.0,0.0,0.0,0.0,139.75,146.38,140.07,144.2,150.05,Open
554,-185.4971272345933,-224.6573835202913,-680.6329704085554,10932.461730535237,0.0,0.0,0.0,0.0,139.75,146.38,140.07,144.2,150.05,Open
555,-154.6964233751802,-200.9868861421211,-635.84007452012,11211.322094359648,0.0,0.0,0.0,0.0,139.75,146.38,140.07,144.2,150.05,Open
556,-185.34066502340616,-229.4630085781823,-669.4794499253571,11301.824307659186,0.0,0.0,0.0,0.0,139.75,146.38,140.07,144.2,150.05,Open
557,-228.25601437759573,-270.9701980316875,-724.6659069855103,11124.597325873056,0.0,0.0,0.0,0.0,139.75,146.38,140.07,144.2,150.05,Open
558,-244.0810494519531,-282.50369817062597,-745.1848083954822,10875.218912985196,0.0,0.0,0.0,0.0,139.75,146.38,140.07,144.2,150.05,Open
559,-186.346493523895,-226.5796335434477,-677.9507610739186,10938.474349793714,0.0,0.0,0.0,0.0,139.75,146.38,140.07,144.2,150.05,Open
560,-143.6546616142585,-187.95581912467708,-627.7487430272988,11213.60197229409,0.0,0.0,0.0,0.0,139.75,146.38,140.07,144.2,150.05,Open
561,-172.68957766170237,-217.34836308340587,-658.191818975427,11298.359787268611,0.0,0.0,0.0,0.0,139.75,146.38,140.07,144.2,150.05,Open
562,-224.9703079426656,-267.34921542992777,-717.289831315259,11119.590535115069,0.0,0.0,0.0,0.0,139.75,146.38,140.07,144.2,150.05,Open
563,-243.9469389852213,-280.5590964030142,-742.1226194051051,10871.262654216607,0.0,0.0,0.0,0.0,139.75,146.38,140.07,144.2,150.05,Open
564,-193.61081047186977,-234.40274410280517,-679.3365692301476,10934.987477658688,0.0,0.0,0.0,0.0,139.75,146.38,140.07,144.2,150.05,Open
565,-148.05795527195397,-194.88485990582228,-626.7205627823547,11212.663199026969,0.0,0.0,0.0,0.0,139.75,146.38,140.07,144.2,150.05,Open
566,-175.3270835074286,-220.5446625405148,-656.8283625636534,11299.119746580094,0.0,0.0,0.0,0.0,139.75,146.38,140.07,144.2,150.05,Open
567,-236.83908424843364,-277.2510382236288,-722.0507528842394,11119.791700815163,0.0,0.0,0.0,0.0,139.75,146.38,140.07,144.2,150.05,Open
568,-256.0168809910871,-287.62224765089127,-750.1692474090156,10870.77091583859,0.0,0.0,0.0,0.0,139.75,146.38,140.07,144.2,150.05,Open
569,-190.25804880357373,-225.6855637652354,-679.4706796968794,10939.904861438854,0.0,0.0,0.0,0.0,139.75,146.38,140.07,144.2,150.05,Open
570,-150.896626817778,-191.4650430041603,-627.905205238486,11216.977085706842,0.0,0.0,0.0,0.0,139.73,146.24,139.02,142.91,148.55,Open
571,-179.68567367621347,-222.5786712859477,-659.7340893428433,11297.868048890596,0.0,0.0,0.0,0.0,139.73,146.24,139.02,142.91,148.55,Open
572,-239.3201278829727,-276.20050623422935,-729.7621047213203,11119.456424648337,0.0,0.0,0.0,0.0,139.73,146.24,139.02,142.91,148.55,Open
573,-269.8749625533775,-300.049817568042,-762.4850586038898,10872.469648417193,0.0,0.0,0.0,0.0,139.73,146.24,139.02,142.91,148.55,Open
574,-206.2618978335736,-240.68358429474645,-689.3725024905805,10941.044800406076,0.0,0.0,0.0,0.0,139.73,146.24,139.02,142.91,148.55,Open
575,-152.70711811865786,-194.9742668836435,-627.681687793933,11219.145204919008,0.0,0.0,0.0,0.0,139.73,146.24,139.02,142.91,148.55,Open
576,-181.45146148818273,-224.27740386455108,-658.9294265424522,11297.890400635051,0.0,0.0,0.0,0.0,139.73,146.24,139.02,142.91,148.55,Open
577,-230.13356091184153,-268.9585410307099,-719.0779708716835,11113.44380538986,0.0,0.0,0.0,0.0,139.73,146.24,139.02,142.91,148.55,Open
578,-257.1568199583078,-288.9410005737544,-750.8397997426748,10870.860322816412,0.0,0.0,0.0,0.0,139.73,146.24,139.02,142.91,148.55,Open
579,-205.7701594555568,-239.4095348607939,-686.9138106004966,10944.55402428556,0.0,0.0,0.0,0.0,139.73,146.24,139.02,142.91,148.55,Open
580,-158.45151644367178,-199.7575401970792,-633.3143273966704,11215.144242661509,0.0,0.0,0.0,0.0,139.73,146.24,139.02,142.91,148.55,Open
581,-186.5700109684481,-228.56893879997003,-666.2160952348823,11294.291769777748,0.0,0.0,0.0,0.0,139.73,146.24,139.02,142.91,148.55,Open
582,-247.90319775381064,-283.8671545823997,-732.6678315005103,11117.109491480527,0.0,0.0,0.0,0.0,139.73,146.24,139.02,142.91,148.55,Open
583,-263.6611775948021,-293.50075644263705,-751.8232764987083,10874.704822862725,0.0,0.0,0.0,0.0,139.73,146.24,139.02,142.91,148.55,Open
584,-198.6623047187692,-229.5077120670929,-680.7000256419213,10944.97870743021,0.0,0.0,0.0,0.0,139.73,146.24,139.02,142.91,148.55,Open
585,-158.60797865485893,-198.34938029639488,-629.358068628081,11215.16659440596,0.0,0.0,0.0,0.0,139.73,146.24,139.02,142.91,148.55,Open
586,-203.8255576879451,-241.26472965058443,-672.7875081047426,11293.420051743991,0.0,0.0,0.0,0.0,140.3,147.15,139.99,144.68,151.07,Open
587,-260.42017464878256,-289.65625639632424,-738.5686920367112,11115.611924602024,0.0,0.0,0.0,0.0,140.3,147.15,139.99,144.68,151.07,Open
588,-268.8467823084334,-296.65235241083536,-752.3597183656358,10872.782572839567,0.0,0.0,0.0,0.0,140.3,147.15,139.99,144.68,151.07,Open
589,-204.18318559923003,-236.28029063705097,-683.6057524211112,10946.364515586438,0.0,0.0,0.0,0.0,140.3,147.15,139.99,144.68,151.07,Open
590,-171.48258346111578,-207.80416820098975,-637.6282140765446,11216.84297524011,0.0,0.0,0.0,0.0,140.3,147.15,139.99,144.68,151.07,Open
591,-206.77598795604564,-244.10340119640844,-674.6650546389884,11292.302464521226,0.0,0.0,0.0,0.0,140.3,147.15,139.99,144.68,151.07,Open
592,-257.1791717027631,-287.7116546287125,-734.6794885014879,11109.576953599091,0.0,0.0,0.0,0.0,140.3,147.15,139.99,144.68,151.07,Open
593,-275.48525041165954,-299.4239687232934,-756.8747707456077,10870.614453627402,0.0,0.0,0.0,0.0,140.3,147.15,139.99,144.68,151.07,Open
594,-208.3406100679171,-240.59417731692523,-683.3375314876475,10946.45392256426,0.0,0.0,0.0,0.0,140.3,147.15,139.99,144.68,151.07,Open
595,-168.17452528173033,-205.1219588663529,-639.7963332887093,11218.631114796532,0.0,0.0,0.0,0.0,140.3,147.15,139.99,144.68,151.07,Open
596,-215.49316829361535,-250.6524623218134,-685.6621129109994,11291.006063342818,0.0,0.0,0.0,0.0,140.3,147.15,139.99,144.68,151.07,Open
597,-267.57273287448083,-299.89335535685484,-746.2800438737922,11110.649837332943,0.0,0.0,0.0,0.0,140.3,147.15,139.99,144.68,151.07,Open
598,-279.7991370915338,-305.4142362373157,-761.5686370812223,10872.804924584025,0.0,0.0,0.0,0.0,140.3,147.15,139.99,144.68,151.07,Open
599,-213.0344764035316,-244.6621948077911,-689.4172059794911,10951.192492388784,0.0,0.0,0.0,0.0,140.3,147.15,139.99,144.68,151.07,Open
600,-176.44467073019396,-215.94020318272152,-643.1490949570054,11219.771053763754,0.0,0.0,0.0,0.0,140.3,147.15,139.99,144.68,151.07,Open
601,-213.21329035917407,-253.60289258991392,-679.6271419080665,11291.22958078737,0.0,0.0,0.0,0.0,140.3,147.15,139.99,144.68,151.07,Open
602,-268.1985817192294,-297.54642218904763,-741.2061978824376,11109.465194876811,0.0,0.0,0.0,0.0,140.3,147.15,139.99,144.68,151.07,Open
603,-274.3900149333495,-300.1168728014079,-755.6901282894764,10871.91085480581,0.0,0.0,0.0,0.0,140.8,147.28,140.65,145.23,151.49,Open
604,-213.6156217593696,-244.55043608551455,-688.1431565455385,10950.387829588391,0.0,0.0,0.0,0.0,140.8,147.28,140.65,145.23,151.49,Open
605,-180.9820748546213,-220.8575869628891,-641.0703827226619,11220.821585753154,0.0,0.0,0.0,0.0,140.8,147.28,140.65,145.23,151.49,Open
606,-232.10051442390855,-266.1422212293412,-688.5901914346447,11288.770888897288,0.0,0.0,0.0,0.0,140.8,147.28,140.65,145.23,151.49,Open
607,-267.88565729685513,-297.92640184478785,-739.5968722816554,11105.352473897035,0.0,0.0,0.0,0.0,140.8,147.28,140.65,145.23,151.49,Open
608,-279.03917778005336,-303.31317225851683,-756.9194742345184,10871.083840260964,0.0,0.0,0.0,0.0,140.8,147.28,140.65,145.23,151.49,Open
609,-210.7993019580009,-240.77299127256768,-682.0411303092397,10954.858178479455,0.0,0.0,0.0,0.0,140.8,147.28,140.65,145.23,151.49,Open
610,-179.95389460967715,-217.4601218056824,-638.7681530437652,11225.023713710752,0.0,0.0,0.0,0.0,140.8,147.28,140.65,145.23,151.49,Open
611,-212.699200236702,-250.2724826660732,-673.1674877604828,11289.620255186588,0.0,0.0,0.0,0.0,140.8,147.28,140.65,145.23,151.49,Open
612,-274.27825621107297,-302.77673039158947,-742.547302549756,11104.10077620754,0.0,0.0,0.0,0.0,140.8,147.28,140.65,145.23,151.49,Open
613,-290.9303058302767,-314.42198925280445,-767.4247941285126,10870.636805371858,0.0,0.0,0.0,0.0,140.8,147.28,140.65,145.23,151.49,Open
614,-240.95180522821013,-269.13735498635236,-702.3588660191139,10954.388791845891,0.0,0.0,0.0,0.0,140.8,147.28,140.65,145.23,151.49,Open
615,-203.62439198784733,-240.99650871712075,-659.421164920469,11224.733141032832,0.0,0.0,0.0,0.0,140.8,147.28,140.65,145.23,151.49,Open
616,-225.50674980959295,-265.8516485514222,-687.8972873565301,11289.977883097874,0.0,0.0,0.0,0.0,140.8,147.28,140.65,145.23,151.49,Open
617,-279.03917778005336,-310.532785717581,-751.1527241650491,11103.743148296257,0.0,0.0,0.0,0.0,140.8,147.28,140.65,145.23,151.49,Open
618,-294.953619832232,-319.1158555884189,-769.2129336849373,10870.525046649582,0.0,0.0,0.0,0.0,140.8,147.28,140.65,145.23,151.49,Open
619,-244.2822151520509,-274.6582358668132,-701.934182874463,10956.914538969344,0.0,0.0,0.0,0.0,140.8,147.28,140.65,145.23,151.49,Open
620,-197.05297911798704,-233.37456385786103,-651.5309991277455,11225.98483872233,0.0,0.0,0.0,0.0,140.8,147.28,140.65,145.23,151.49,Open
621,-227.51840681057055,-263.728232828168,-686.5561826892117,11288.99440634184,0.0,0.0,0.0,0.0,140.8,147.28,140.65,145.23,151.49,Open
622,-287.1528610173298,-314.46669274171506,-754.5725410667111,11099.518668594204,0.0,0.0,0.0,0.0,140.8,147.28,140.65,145.23,151.49,Open
623,-294.41717796530463,-316.1877770647737,-767.0224627283171,10867.39580242584,0.0,0.0,0.0,0.0,140.8,147.28,140.65,145.23,151.49,Open
624,-235.69914528121296,-262.83416304995575,-698.2014415504267,10958.523864570125,0.0,0.0,0.0,0.0,140.8,147.28,140.65,145.23,151.49,Open
625,-203.78085419903448,-239.8565697499001,-655.0625747516841,11227.482405600837,0.0,0.0,0.0,0.0,140.8,147.28,140.65,145.23,151.49,Open
626,-248.79726753202291,-284.96239006070977,-699.095511328639,11288.99440634184,0.0,0.0,0.0,0.0,140.8,147.28,140.65,145.23,151.49,Open
627,-290.1032912854304,-318.51235848812564,-752.0020904543508,11097.10468019303,0.0,0.0,0.0,0.0,141.5,146.44,139.64,143.99,150.13,Open
628,-283.12954701537456,-308.94581186125424,-757.5900265681776,10869.161590237807,0.0,0.0,0.0,0.0,141.5,146.44,139.64,143.99,150.13,Open
629,-236.4144011037828,-265.3822619178608,-696.9720956053849,10963.26243439465,0.0,0.0,0.0,0.0,141.5,146.44,139.64,143.99,150.13,Open
630,-213.48151129263775,-244.9304157412548,-659.8011445762091,11230.656353313489,0.0,0.0,0.0,0.0,141.5,146.44,139.64,143.99,150.13,Open
631,-251.72534605566813,-282.6601603818131,-697.7544066613206,11286.7145284074,0.0,0.0,0.0,0.0,141.5,146.44,139.64,143.99,150.13,Open
632,-296.5405936885588,-317.6182887099134,-752.6949945324653,11093.774270269188,0.0,0.0,0.0,0.0,141.5,146.44,139.64,143.99,150.13,Open
633,-302.39675073584925,-318.82528291049994,-767.2683319173256,10867.507561148115,0.0,0.0,0.0,0.0,141.5,146.44,139.64,143.99,150.13,Open
634,-233.66513653578,-261.6271688493692,-692.9934850923402,10965.631719306914,0.0,0.0,0.0,0.0,141.5,146.44,139.64,143.99,150.13,Open
635,-213.3697525703612,-247.1655901867855,-661.7233945993656,11232.93623124793,0.0,0.0,0.0,0.0,141.5,146.44,139.64,143.99,150.13,Open
636,-245.51156109709277,-280.1344132583634,-700.8836508850636,11288.65913017501,0.0,0.0,0.0,0.0,141.5,146.44,139.64,143.99,150.13,Open
637,-298.99928557864257,-324.81555042452226,-762.1944859259709,11095.33889238106,0.0,0.0,0.0,0.0,141.5,146.44,139.64,143.99,150.13,Open
638,-311.27039328460614,-331.58812899448026,-777.0136924998394,10867.462857659204,0.0,0.0,0.0,0.0,141.5,146.44,139.64,143.99,150.13,Open
639,-249.3784128878609,-272.9595032882099,-705.2869445427591,10965.609367562458,0.0,0.0,0.0,0.0,141.5,146.44,139.64,143.99,150.13,Open
640,-204.22788908814064,-237.0178982040761,-652.0897927391283,11233.964411492874,0.0,0.0,0.0,0.0,141.5,146.44,139.64,143.99,150.13,Open
641,-238.5825203159476,-272.2218957211847,-691.9429531029407,11287.273322018782,0.0,0.0,0.0,0.0,141.5,146.44,139.64,143.99,150.13,Open
642,-306.48711997117044,-332.28103307259477,-767.4247941285126,11092.14259292395,0.0,0.0,0.0,0.0,141.5,146.44,139.64,143.99,150.13,Open
643,-321.39573352286027,-341.66876574382377,-783.5627536252443,10866.322918691983,0.0,0.0,0.0,0.0,141.5,146.44,139.64,143.99,150.13,Open
644,-256.0168809910871,-282.3025324705282,-708.4385405109573,10966.637547807402,0.0,0.0,0.0,0.0,141.48,146.87,140.1,144.76,151.09,Open
645,-225.7973224875119,-260.37547115987195,-667.2889789687371,11234.5008533598,0.0,0.0,0.0,0.0,141.48,146.87,140.1,144.76,151.09,Open
646,-264.2423229506401,-298.99928557864257,-708.5950027221445,11286.915694107496,0.0,0.0,0.0,0.0,141.48,146.87,140.1,144.76,151.09,Open
647,-317.7523991766452,-340.12649537640755,-771.1798871970043,11088.879238233476,0.0,0.0,0.0,0.0,141.48,146.87,140.1,144.76,151.09,Open
648,-317.6853439432793,-336.1255331189076,-778.5783146117109,10864.803000069023,0.0,0.0,0.0,0.0,141.48,146.87,140.1,144.76,151.09,Open
649,-241.1753226727632,-269.15970673080767,-699.2743252842814,10971.778449032125,0.0,0.0,0.0,0.0,141.48,146.87,140.1,144.76,151.09,Open
650,-206.73128446713503,-241.77881977305648,-652.1344962280389,11237.406580138992,0.0,0.0,0.0,0.0,141.48,146.87,140.1,144.76,151.09,Open
651,-245.9362442417436,-281.81079409251146,-692.1888222919491,11285.261665017804,0.0,0.0,0.0,0.0,141.48,146.87,140.1,144.76,151.09,Open
652,-314.824320653,-340.7299924767009,-767.6483115730657,11087.62754054398,0.0,0.0,0.0,0.0,141.48,146.87,140.1,144.76,151.09,Open
653,-329.4423615267708,-345.1556378788517,-784.8591548036522,10865.205331469218,0.0,0.0,0.0,0.0,141.48,146.87,140.1,144.76,151.09,Open
654,-270.47845965367077,-293.0090180646203,-712.5289097462786,10970.54910308708,0.0,0.0,0.0,0.0,141.48,146.87,140.1,144.76,151.09,Open
655,-236.7049737817018,-270.567866631492,-673.1227842715722,11238.904147017498,0.0,0.0,0.0,0.0,141.48,146.87,140.1,144.76,151.09,Open
656,-260.5542851155144,-295.6241721658912,-703.2305840528708,11285.306368506715,0.0,0.0,0.0,0.0,141.48,146.87,140.1,144.76,151.09,Open
657,-315.9866113646759,-342.1158006329299,-767.0448144727725,11088.454555088823,0.0,0.0,0.0,0.0,141.48,146.87,140.1,144.76,151.09,Open
658,-328.2130155817289,-346.65320475735723,-782.9816082694064,10866.613491369902,0.0,0.0,0.0,0.0,141.48,146.87,140.1,144.76,151.09,Open
659,-276.46872716769303,-298.4404919672599,-716.2840028147701,10973.566588588546,0.0,0.0,0.0,0.0,141.48,146.87,140.1,144.76,151.09,Open
660,-247.56792158698104,-274.7252911001791,-679.3812727190582,11240.155844706997,0.0,0.0,0.0,0.0,141.48,146.87,140.1,144.76,151.09,Open
661,-275.4181951782936,-302.39675073584925,-716.7310377038763,11285.641644673544,0.0,0.0,0.0,0.0,141.77,146.79,140.02,144.72,150.93,Open
662,-326.2460620696619,-347.5472745355695,-777.4607273889455,11084.5653515536,0.0,0.0,0.0,0.0,141.77,146.79,140.02,144.72,150.93,Open
663,-325.75432369164514,-344.23921635618404,-782.7804425693087,10863.90893029081,0.0,0.0,0.0,0.0,141.77,146.79,140.02,144.72,150.93,Open
664,-262.6106456054027,-288.53866917355884,-709.869052156097,10977.187571190309,0.0,0.0,0.0,0.0,141.77,146.79,140.02,144.72,150.93,Open
665,-234.62626154735824,-270.277293953573,-671.0217202927734,11242.234556941336,0.0,0.0,0.0,0.0,141.77,146.79,140.02,144.72,150.93,Open
666,-279.59797139143603,-312.1197595739078,-717.9827353933734,11283.18295278346,0.0,0.0,0.0,0.0,141.77,146.79,140.02,144.72,150.93,Open
667,-330.1352656048853,-354.8115914835443,-777.1030994776606,11082.263121874705,0.0,0.0,0.0,0.0,141.77,146.79,140.02,144.72,150.93,Open
668,-329.6658789713239,-347.949605935765,-782.0204832578282,10863.90893029081,0.0,0.0,0.0,0.0,141.77,146.79,140.02,144.72,150.93,Open
669,-272.1548404878188,-294.9759715766873,-712.3724475350914,10977.969882246243,0.0,0.0,0.0,0.0,141.77,146.79,140.02,144.72,150.93,Open
670,-242.85170350691124,-274.0547387665199,-672.5863424046448,11241.787522052233,0.0,0.0,0.0,0.0,141.77,146.79,140.02,144.72,150.93,Open
671,-272.93715154375457,-300.9885908351649,-707.3880085215579,11282.981787083365,0.0,0.0,0.0,0.0,141.77,146.79,140.02,144.72,150.93,Open
672,-326.73780044767864,-345.04387915657514,-768.1400499510825,11079.469153817792,0.0,0.0,0.0,0.0,141.77,146.79,140.02,144.72,150.93,Open
673,-355.7056612617566,-368.110879434452,-801.1312247671158,10863.126619234876,0.0,0.0,0.0,0.0,141.77,146.79,140.02,144.72,150.93,Open
674,-283.39776794883824,-302.888489113866,-724.9117761745186,10981.03207123662,0.0,0.0,0.0,0.0,141.77,146.79,140.02,144.72,150.93,Open
675,-254.49696236812625,-282.50369817062597,-685.0809675551615,11243.5533098642,0.0,0.0,0.0,0.0,141.77,146.79,140.02,144.72,150.93,Open
676,-295.75828263262304,-323.7873701795781,-732.6678315005103,11281.819496371689,0.0,0.0,0.0,0.0,141.77,146.79,140.02,144.72,150.93,Open
677,-345.2673966011282,-366.5462573225805,-793.7327973524091,11077.613959028002,0.0,0.0,0.0,0.0,140.92,147.17,140.62,144.98,151.15,Open
678,-348.2178268692287,-362.1876671537957,-796.4597101759566,10860.757334322612,0.0,0.0,0.0,0.0,140.92,147.17,140.62,144.98,151.15,Open
679,-282.05666328151983,-305.72716065969,-717.8933284155522,10980.897960769888,0.0,0.0,0.0,0.0,140.92,147.17,140.62,144.98,151.15,Open
680,-243.63401456284697,-274.7252911001791,-677.7495953738207,11247.531920377243,0.0,0.0,0.0,0.0,140.92,147.17,140.62,144.98,151.15,Open
681,-286.7952331060449,-314.824320653,-722.4307325399795,11284.14407779504,0.0,0.0,0.0,0.0,140.92,147.17,140.62,144.98,151.15,Open
682,-340.2829575875947,-361.89709447587666,-785.5967623706773,11075.9152264494,0.0,0.0,0.0,0.0,140.92,147.17,140.62,144.98,151.15,Open
683,-345.2450448566729,-362.7911642540889,-793.3528176966689,10860.064430244498,0.0,0.0,0.0,0.0,140.92,147.17,140.62,144.98,151.15,Open
684,-285.96821856119857,-308.63288743887995,-722.7883604512645,10982.730803815222,0.0,0.0,0.0,0.0,140.92,147.17,140.62,144.98,151.15,Open
685,-248.93137799875475,-280.469689425193,-683.2034210209157,11246.816664554675,0.0,0.0,0.0,0.0,140.92,147.17,140.62,144.98,151.15,Open
686,-297.61347742241355,-325.1955300802625,-732.0643344002169,11280.56779868219,0.0,0.0,0.0,0.0,140.92,147.17,140.62,144.98,151.15,Open
687,-350.11772514792983,-367.66384454534585,-793.5539833967666,11074.37295608198,0.0,0.0,0.0,0.0,140.92,147.17,140.62,144.98,151.15,Open
688,-350.9447396927762,-366.72507127822297,-796.057378775761,10861.494941889638,0.0,0.0,0.0,0.0,140.92,147.17,140.62,144.98,151.15,Open
689,-286.6834743837684,-309.59401245045814,-720.9778691503847,10986.575303861537,0.0,0.0,0.0,0.0,140.92,147.17,140.62,144.98,151.15,Open
690,-259.77197405957867,-289.276276740584,-689.0595780682062,11249.70003958941,0.0,0.0,0.0,0.0,140.92,147.17,140.62,144.98,151.15,Open
691,-292.696093642246,-322.468617256715,-727.6163372536108,11280.836019615654,0.0,0.0,0.0,0.0,140.92,147.17,140.62,144.98,151.15,Open
692,-353.40343158286,-370.79308876908885,-795.5879921421996,11073.098906648029,0.0,0.0,0.0,0.0,140.92,147.17,140.62,144.98,151.15,Open
693,-365.71924277773417,-377.65507431686814,-805.8474428471856,10862.031383756565,0.0,0.0,0.0,0.0,140.92,147.17,140.62,144.98,151.15,Open
694,-296.697055899746,-317.23830905417316,-728.3092413317253,10989.659844596368,0.0,0.0,0.0,0.0,140.92,147.17,140.62,144.98,151.15,Open
695,-264.3540816729166,-295.42300646579343,-693.2617060258038,11252.963394279885,0.0,0.0,0.0,0.0,140.92,147.17,140.62,144.98,151.15,Open
696,-301.05564606853085,-330.0905621159747,-733.8748257010968,11280.880723104565,0.0,0.0,0.0,0.0,140.92,147.17,140.62,144.98,151.15,Open
697,-350.6765187593125,-372.4247661143263,-792.2799339628142,11070.8637322025,0.0,0.0,0.0,0.0,140.92,147.17,140.62,144.98,151.15,Open
698,-354.61042578344654,-370.7036817912676,-798.6278293881213,10861.00320351162,0.0,0.0,0.0,0.0,140.92,147.17,140.62,144.98,151.15,Open
699,-298.55225068953644,-320.4569602557374,-730.320898332703,10990.375100418938,0.0,0.0,0.0,0.0,140.92,147.17,140.62,144.98,151.15,Open
700,-273.7418143441456,-303.40257923633806,-696.9273921164743,11250.080019245152,0.0,0.0,0.0,0.0,140.92,147.17,140.62,144.98,151.15,Open
701,-307.53765196056986,-335.2761668296059,-736.512331546823,11276.90211259152,0.0,0.0,0.0,0.0,140.92,147.17,140.62,144.98,151.15,Open
702,-365.5404288220917,-380.9854842407089,-800.6171346446437,11063.353546065517,0.0,0.0,0.0,0.0,141.27,147.03,139.93,143.98,150.09,Open
703,-373.4752981037257,-383.3547691529714,-813.1341115396157,10858.455104643715,0.0,0.0,0.0,0.0,141.27,147.03,139.93,143.98,150.09,Open
704,-296.2500210106398,-318.93704163277647,-731.8184652112085,10993.325530687038,0.0,0.0,0.0,0.0,141.27,147.03,139.93,143.98,150.09,Open
705,-273.60770387741377,-303.00024783614253,-699.7660636622982,11252.672821601966,0.0,0.0,0.0,0.0,141.27,147.03,139.93,143.98,150.09,Open
706,-307.9399833607654,-338.6959837312679,-738.4122298255242,11278.198513769928,0.0,0.0,0.0,0.0,141.27,147.03,139.93,143.98,150.09,Open
707,-361.1371351643962,-383.0418447305971,-801.5335561673113,11066.37103156698,0.0,0.0,0.0,0.0,141.27,147.03,139.93,143.98,150.09,Open
708,-373.18472542580673,-384.4500046312815,-813.3576289841687,10858.835084299457,0.0,0.0,0.0,0.0,141.27,147.03,139.93,143.98,150.09,Open
709,-295.5571169325253,-317.48417824318153,-730.030325654784,10993.839620809513,0.0,0.0,0.0,0.0,141.27,147.03,139.93,143.98,150.09,Open
710,-265.4046136623161,-295.5794686769806,-693.5522787037229,11253.656298358,0.0,0.0,0.0,0.0,141.27,147.03,139.93,143.98,150.09,Open
711,-320.23344281118426,-343.30044308906116,-745.1848083954822,11275.203380012916,0.0,0.0,0.0,0.0,141.27,147.03,139.93,143.98,150.09,Open
712,-359.14782990787387,-378.39268188389326,-799.4548439329677,11062.168903609385,0.0,0.0,0.0,0.0,141.27,147.03,139.93,143.98,150.09,Open
713,-370.6813300468123,-387.22162094373954,-811.4577307054676,10860.667927344792,0.0,0.0,0.0,0.0,141.27,147.03,139.93,143.98,150.09,Open
714,-312.3879805073715,-334.96324240723163,-743.5754827947001,10997.013568522165,0.0,0.0,0.0,0.0,141.27,147.03,139.93,143.98,150.09,Open
715,-276.17815448977404,-305.9283263597878,-701.8671276410971,11255.13151349205,0.0,0.0,0.0,0.0,141.27,147.03,139.93,143.98,150.09,Open
716,-325.84373066946637,-353.31402460503875,-747.5764450522,11274.018737556784,0.0,0.0,0.0,0.0,141.27,147.03,139.93,143.98,150.09,Open
717,-374.59288532649106,-393.7259785802339,-806.7415126253978,11061.90068267592,0.0,0.0,0.0,0.0,141.27,147.03,139.93,143.98,150.09,Open
718,-369.563742824047,-385.54524010959153,-807.6132306591547,10860.489113389149,0.0,0.0,0.0,0.0,141.55,146.96,140.35,145.42,152.28,Open
719,-304.54251820355876,-326.13430334738536,-732.220796611404,10999.718129601257,0.0,0.0,0.0,0.0,141.55,146.96,140.35,145.42,152.28,Open
720,-288.69513138474605,-315.76309392012286,-704.9516683759294,11254.170388480472,0.0,0.0,0.0,0.0,141.55,146.96,140.35,145.42,152.28,Open
721,-318.758227677134,-346.6308530129019,-745.4083258400352,11272.6105776561,0.0,0.0,0.0,0.0,141.55,146.96,140.35,145.42,152.28,Open
722,-376.1128039494519,-396.7434640817004,-809.7813498713195,11058.637327985443,0.0,0.0,0.0,0.0,141.55,146.96,140.35,145.42,152.28,Open
723,-381.6336848299128,-395.4247111588372,-817.0680185637497,10859.57269186648,0.0,0.0,0.0,0.0,141.55,146.96,140.35,145.42,152.28,Open
724,-311.8291868959888,-333.8009516955557,-739.8874449595744,11000.209867979273,0.0,0.0,0.0,0.0,141.55,146.96,140.35,145.42,152.28,Open
725,-290.66208489681304,-320.3675532779161,-710.159624834016,11257.165522237485,0.0,0.0,0.0,0.0,141.55,146.96,140.35,145.42,152.28,Open
726,-339.5677017650249,-365.02633869961966,-759.4228696135127,11273.638757901044,0.0,0.0,0.0,0.0,141.55,146.96,140.35,145.42,152.28,Open
727,-393.5024611356809,-409.7968828435997,-823.0135825888614,11057.631499484956,0.0,0.0,0.0,0.0,141.55,146.96,140.35,145.42,152.28,Open
728,-384.628818586924,-393.9941995136976,-817.3362394972133,10858.879787788366,0.0,0.0,0.0,0.0,141.55,146.96,140.35,145.42,152.28,Open
729,-325.3519922914496,-343.99334716717567,-746.4812095738899,11002.154469746883,0.0,0.0,0.0,0.0,141.55,146.96,140.35,145.42,152.28,Open
730,-293.50075644263705,-323.2062248237401,-710.2713835562926,11258.41721992698,0.0,0.0,0.0,0.0,141.55,146.96,140.35,145.42,152.28,Open
731,-328.5035882596479,-356.5103240621477,-753.76787826632,11270.88949333304,0.0,0.0,0.0,0.0,141.55,146.96,140.35,145.42,152.28,Open
732,-388.9427052667982,-403.06900776255225,-821.4936639659005,11055.865711672988,0.0,0.0,0.0,0.0,141.55,146.96,140.35,145.42,152.28,Open
733,-393.3907024134043,-401.9514205397869,-823.862948878163,10858.164531965796,0.0,0.0,0.0,0.0,141.55,146.96,140.35,145.42,152.28,Open
734,-319.629945710891,-342.1158006329299,-742.7261165053984,11002.400338935891,0.0,0.0,0.0,0.0,141.55,146.96,140.35,145.42,152.28,Open
735,-303.73785540316766,-328.92827140429875,-714.965249891907,11257.523150148769,0.0,0.0,0.0,0.0,141.14,146.78,139.8,143.92,150.04,Open
736,-339.9029779318545,-364.35578636596045,-755.8465905006636,11271.537693922246,0.0,0.0,0.0,0.0,141.14,146.78,139.8,143.92,150.04,Open
737,-384.94174300929825,-399.4703769052478,-814.4528644624787,11053.585833738549,0.0,0.0,0.0,0.0,141.14,146.78,139.8,143.92,150.04,Open
738,-389.07681573353005,-397.95045828228695,-818.185605786515,10856.443447642738,0.0,0.0,0.0,0.0,141.14,146.78,139.8,143.92,150.04,Open
739,-331.52107376111434,-349.6036350254578,-750.1468956645604,11003.719091858757,0.0,0.0,0.0,0.0,141.14,146.78,139.8,143.92,150.04,Open
740,-304.4754629701928,-329.53176850459204,-718.5638807492114,11259.46775191638,0.0,0.0,0.0,0.0,141.14,146.78,139.8,143.92,150.04,Open
741,-350.7659257371337,-369.42963235731514,-763.96027373794,11267.268510731285,0.0,0.0,0.0,0.0,141.14,146.78,139.8,143.92,150.04,Open
742,-408.075798520541,-423.9231853393537,-832.6918879380094,11051.015383126189,0.0,0.0,0.0,0.0,141.14,146.78,139.8,143.92,150.04,Open
743,-400.8561850614769,-408.99222004320865,-830.2331960479255,10858.34334592144,0.0,0.0,0.0,0.0,141.14,146.78,139.8,143.92,150.04,Open
744,-337.53369301959196,-353.8057629830555,-756.2489219008592,11008.770586105657,0.0,0.0,0.0,0.0,141.14,146.78,139.8,143.92,150.04,Open
745,-303.73785540316766,-330.60465223844676,-721.0672761282059,11263.155789751503,0.0,0.0,0.0,0.0,141.14,146.78,139.8,143.92,150.04,Open
746,-346.9214256908209,-371.2848271471056,-766.3295586502027,11268.296690976224,0.0,0.0,0.0,0.0,141.14,146.78,139.8,143.92,150.04,Open
747,-403.1584147403735,-418.9610980702756,-828.0427250913054,11047.819083669076,0.0,0.0,0.0,0.0,141.14,146.78,139.8,143.92,150.04,Open
748,-408.96986829875334,-418.24584224770575,-834.8153036612634,10856.085819731454,0.0,0.0,0.0,0.0,141.14,146.78,139.8,143.92,150.04,Open
749,-335.7679052076227,-351.57058853752477,-752.1138491766274,11010.6481326399,0.0,0.0,0.0,0.0,141.14,146.78,139.8,143.92,150.04,Open
750,-308.0517420830419,-332.9292336617987,-720.5084825168232,11262.932272306953,0.0,0.0,0.0,0.0,141.14,146.78,139.8,143.92,150.04,Open
751,-362.0759084315191,-383.0194929861418,-773.7726895538199,11268.676670631969,0.0,0.0,0.0,0.0,141.14,146.78,139.8,143.92,150.04,Open
752,-399.89506004989863,-416.3459439690047,-825.0699430787496,11047.886138902442,0.0,0.0,0.0,0.0,141.14,146.78,139.8,143.92,150.04,Open
753,-390.8426035454993,-401.6384961174126,-820.1302075541267,10859.349174421928,0.0,0.0,0.0,0.0,141.14,146.78,139.8,143.92,150.04,Open
754,-341.4005448103601,-356.71148976224544,-757.3665091236245,11012.83860359652,0.0,0.0,0.0,0.0,141.14,146.78,139.8,143.92,150.04,Open
755,-323.38503877938257,-346.42968731280416,-733.0031076673398,11262.619347884578,0.0,0.0,0.0,0.0,141.14,146.78,139.8,143.92,150.04,Open
756,-357.3149868625387,-378.7056063062675,-772.185715697493,11267.246158986827,0.0,0.0,0.0,0.0,141.14,146.78,139.8,143.92,150.04,Open
757,-407.4499496757924,-422.40326671639286,-831.2613762928696,11044.08634234504,0.0,0.0,0.0,0.0,141.14,146.78,139.8,143.92,150.04,Open
758,-417.84351084751023,-422.9173568388649,-838.9727281299506,10856.15287496482,0.0,0.0,0.0,0.0,141.14,146.78,139.8,143.92,150.04,Open
759,-359.72897526371185,-373.497649848181,-768.5200296068227,11015.364350719972,0.0,0.0,0.0,0.0,141.14,146.78,139.8,143.92,150.04,Open
760,-331.7222394612121,-356.44326882878175,-737.5628635362225,11264.742763607832,0.0,0.0,0.0,0.0,141.19,146.82,140.11,145.01,151.82,Open
761,-372.2012486697733,-389.5685541115468,-782.1769454690153,11266.32973746416,0.0,0.0,0.0,0.0,141.19,146.82,140.11,145.01,151.82,Open
762,-423.1632260278733,-431.7015924098006,-841.1631990865707,11042.119388832974,0.0,0.0,0.0,0.0,141.19,146.82,140.11,145.01,151.82,Open
763,-412.8590718339768,-420.8609963489767,-834.3235652832467,10855.661136586805,0.0,0.0,0.0,0.0,141.19,146.82,140.11,145.01,151.82,Open
764,-351.45882981524824,-365.3392631219939,-761.9039132480518,11017.107786787485,0.0,0.0,0.0,0.0,141.19,146.82,140.11,145.01,151.82,Open
765,-346.69790824626784,-363.3499578654716,-743.1731513945045,11265.23450198585,0.0,0.0,0.0,0.0,141.19,146.82,140.11,145.01,151.82,Open
766,-363.90875147685426,-381.43251912981503,-773.6162273426328,11263.602824640611,0.0,0.0,0.0,0.0,141.19,146.82,140.11,145.01,151.82,Open
767,-408.5228334096472,-422.8279498610437,-830.412010003568,11038.744275420222,0.0,0.0,0.0,0.0,141.19,146.82,140.11,145.01,151.82,Open
768,-412.3226299670494,-419.3187259815605,-833.5636059717663,10857.20340695422,0.0,0.0,0.0,0.0,141.19,146.82,140.11,145.01,151.82,Open
769,-350.9223879483209,-368.6249695569241,-762.1274306926049,11019.722940888756,0.0,0.0,0.0,0.0,141.19,146.82,140.11,145.01,151.82,Open
770,-333.35391680644955,-359.01371944114203,-738.546340292256,11268.22963574286,0.0,0.0,0.0,0.0,141.19,146.82,140.11,145.01,151.82,Open
771,-376.6045423274687,-397.1457954818959,-787.541364138289,11265.346260708126,0.0,0.0,0.0,0.0,141.19,146.82,140.11,145.01,151.82,Open
772,-423.4761504502476,-432.08157206554085,-842.0349171203277,11037.581984708546,0.0,0.0,0.0,0.0,141.19,146.82,140.11,145.01,151.82,Open
773,-418.7822841146331,-423.6549644058901,-836.0446496063054,10855.8623022869,0.0,0.0,0.0,0.0,141.19,146.82,140.11,145.01,151.82,Open
774,-356.3091583620499,-370.0554812020638,-762.574465581711,11021.511080445182,0.0,0.0,0.0,0.0,141.19,146.82,140.11,145.01,151.82,Open
775,-336.32669881900534,-357.3149868625387,-738.0769536586945,11267.961414809395,0.0,0.0,0.0,0.0,141.19,146.82,140.11,145.01,151.82,Open
776,-375.0622719600525,-395.13413848091824,-783.3392361806913,11264.94392930793,0.0,0.0,0.0,0.0,140.88,147.31,140.13,144.96,151.27,Open
777,-427.94649934130905,-436.14958955640674,-844.7618299438751,11036.822025397069,0.0,0.0,0.0,0.0,140.88,147.31,140.13,144.96,151.27,Open
778,-423.3867434724264,-426.85126386299896,-839.9562048859841,10858.097476732431,0.0,0.0,0.0,0.0,140.88,147.31,140.13,144.96,151.27,Open
779,-370.7036817912676,-384.31589416454966,-774.5773523542109,11023.925068846354,0.0,0.0,0.0,0.0,140.88,147.31,140.13,144.96,151.27,Open
780,-353.31402460503875,-371.9777312252201,-751.7785730097977,11270.174237510471,0.0,0.0,0.0,0.0,140.88,147.31,140.13,144.96,151.27,Open
781,-384.87468777593233,-404.6783333633344,-793.1740037410265,11260.540635650235,0.0,0.0,0.0,0.0,140.88,147.31,140.13,144.96,151.27,Open
782,-438.83179889104355,-445.85024665001,-855.9377021715287,11031.681124172346,0.0,0.0,0.0,0.0,140.88,147.31,140.13,144.96,151.27,Open
783,-426.2924702516163,-432.43919997682576,-842.1913793315148,10856.868130787389,0.0,0.0,0.0,0.0,140.88,147.31,140.13,144.96,151.27,Open
784,-362.0088531981532,-375.7775277826223,-766.642483072577,11026.674333414358,0.0,0.0,0.0,0.0,140.88,147.31,140.13,144.96,151.27,Open
785,-344.35097507846064,-362.90292297636546,-743.9554624504402,11268.98959505434,0.0,0.0,0.0,0.0,140.88,147.31,140.13,144.96,151.27,Open
786,-389.5238506226362,-406.4664729197589,-794.671570619532,11260.540635650235,0.0,0.0,0.0,0.0,140.88,147.31,140.13,144.96,151.27,Open
787,-438.80944714658824,-445.9620053722865,-851.6461672361097,11031.9046416169,0.0,0.0,0.0,0.0,140.88,147.31,140.13,144.96,151.27,Open
788,-436.3954587454151,-437.7142116682782,-849.2321788349366,10855.19174995324,0.0,0.0,0.0,0.0,140.88,147.31,140.13,144.96,151.27,Open
789,-366.8368300004995,-377.5656673390469,-772.0739569752166,11027.680161914846,0.0,0.0,0.0,0.0,140.88,147.31,140.13,144.96,151.27,Open
790,-351.3023676040611,-367.6191410564352,-751.0409654427726,11270.598920655122,0.0,0.0,0.0,0.0,140.88,147.31,140.13,144.96,151.27,Open
791,-396.5422983816026,-410.8474148329991,-798.0466840322833,11259.37834493856,0.0,0.0,0.0,0.0,140.88,147.31,140.13,144.96,151.27,Open
792,-444.6209007049681,-451.54994148611325,-856.5411992718219,11029.110673559986,0.0,0.0,0.0,0.0,140.88,147.31,140.13,144.96,151.27,Open
793,-438.0718395795631,-439.6588134358899,-848.0698881232606,10856.644613342836,0.0,0.0,0.0,0.0,140.67,147.01,140.3,144.99,151.52,Open
794,-365.0039869551643,-373.5423533370917,-768.0506429732612,11030.541185205126,0.0,0.0,0.0,0.0,140.67,147.01,140.3,144.99,151.52,Open
795,-348.7766204806114,-365.4286700998152,-748.4705148304123,11272.834095100654,0.0,0.0,0.0,0.0,140.67,147.01,140.3,144.99,151.52,Open
796,-394.15066172488474,-407.9640397982645,-794.1798322415152,11258.104295504609,0.0,0.0,0.0,0.0,140.67,147.01,140.3,144.99,151.52,Open
797,-455.5062002547026,-457.18258108885067,-862.0844318967381,11024.237993268727,0.0,0.0,0.0,0.0,140.67,147.01,140.3,144.99,151.52,Open
798,-439.3682407579709,-442.2739675371608,-853.3672515591684,10857.046944743031,0.0,0.0,0.0,0.0,140.67,147.01,140.3,144.99,151.52,Open
799,-377.6103708279575,-390.4849756342144,-780.4558611459568,11032.03875208363,0.0,0.0,0.0,0.0,140.67,147.01,140.3,144.99,151.52,Open
800,-355.25862637265044,-374.4364231153039,-753.3655468661245,11275.985691068852,0.0,0.0,0.0,0.0,140.67,147.01,140.3,144.99,151.52,Open
801,-398.4869001492143,-412.7920166006109,-804.1263585241269,11259.780676338754,0.0,0.0,0.0,0.0,140.67,147.01,140.3,144.99,151.52,Open
802,-456.6684909663786,-459.8200869345769,-869.1699348890704,11023.567440935069,0.0,0.0,0.0,0.0,140.67,147.01,140.3,144.99,151.52,Open
803,-445.2914530386273,-446.6102059614904,-857.0105859053834,10856.778723809568,0.0,0.0,0.0,0.0,140.67,147.01,140.3,144.99,151.52,Open
804,-376.8727632609324,-389.07681573353005,-777.7736518113198,11034.653906184902,0.0,0.0,0.0,0.0,140.67,147.01,140.3,144.99,151.52,Open
805,-372.51417309214753,-389.05446398907475,-766.4860208613898,11273.906978834508,0.0,0.0,0.0,0.0,140.67,147.01,140.3,144.99,151.52,Open
806,-419.6987056373007,-431.9251098543537,-816.6656871635541,11256.137341992538,0.0,0.0,0.0,0.0,140.67,147.01,140.3,144.99,151.52,Open
807,-459.44010727883665,-463.3516625585154,-868.5664377887772,11022.785129879134,0.0,0.0,0.0,0.0,140.67,147.01,140.3,144.99,151.52,Open
808,-455.170924087873,-454.5003717542138,-861.637397007632,10856.085819731454,0.0,0.0,0.0,0.0,140.67,147.01,140.3,144.99,151.52,Open
809,-389.3897401559043,-400.1856327278177,-786.736701337898,11037.023191097163,0.0,0.0,0.0,0.0,140.53,146.96,140.25,145.04,151.14,Open
810,-374.86110625995474,-392.51898437964735,-765.5472475942669,11276.075098046673,0.0,0.0,0.0,0.0,140.53,146.96,140.25,145.04,151.14,Open
811,-425.979545829242,-438.6976884243117,-817.7832743863195,11254.12568499156,0.0,0.0,0.0,0.0,140.53,146.96,140.25,145.04,151.14,Open
812,-479.5790290330683,-480.87543021147616,-882.5586298177993,11017.241897254216,0.0,0.0,0.0,0.0,140.53,146.96,140.25,145.04,151.14,Open
813,-446.94548212832,-452.8463426645211,-861.637397007632,10857.7622005656,0.0,0.0,0.0,0.0,140.53,146.96,140.25,145.04,151.14,Open
814,-378.99617898418654,-394.754158825178,-783.8086228142528,11039.168958564873,0.0,0.0,0.0,0.0,140.53,146.96,140.25,145.04,151.14,Open
815,-370.39075736889333,-387.33337966601607,-765.7260615499093,11276.075098046673,0.0,0.0,0.0,0.0,140.53,146.96,140.25,145.04,151.14,Open
816,-427.365353985471,-436.48486572323634,-826.7910274018083,11254.259795458293,0.0,0.0,0.0,0.0,140.53,146.96,140.25,145.04,151.14,Open
817,-483.4458808238364,-484.1164331574957,-888.7947665208301,11018.001856565696,0.0,0.0,0.0,0.0,140.53,146.96,140.25,145.04,151.14,Open
818,-464.40219454791486,-466.1903341043394,-871.7627372458861,10856.018764498089,0.0,0.0,0.0,0.0,140.53,146.96,140.25,145.04,151.14,Open
819,-396.5199466371473,-408.70164736528966,-792.6375618740991,11042.432313255347,0.0,0.0,0.0,0.0,140.53,146.96,140.25,145.04,151.14,Open
820,-371.79891726957766,-391.1778797123289,-769.8834860185965,11279.226694014871,0.0,0.0,0.0,0.0,140.53,146.96,140.25,145.04,151.14,Open
821,-419.1622637703734,-431.0310400761414,-824.3099837672692,11253.969222780372,0.0,0.0,0.0,0.0,140.53,146.96,140.25,145.04,151.14,Open
822,-483.55763954611297,-483.7364535017555,-891.2087549220032,11014.962019319775,0.0,0.0,0.0,0.0,140.53,146.96,140.25,145.04,151.14,Open
823,-463.61988349197907,-461.4964677687249,-874.4672983249782,10855.437619142249,0.0,0.0,0.0,0.0,140.53,146.96,140.25,145.04,151.14,Open
824,-398.6657141048568,-405.88532756392095,-798.5160706658448,11042.879348144454,0.0,0.0,0.0,0.0,140.53,146.96,140.25,145.04,151.14,Open
825,-392.20605995727306,-404.81244383006623,-780.5676198682332,11278.623196914576,0.0,0.0,0.0,0.0,140.53,146.96,140.25,145.04,151.14,Open
826,-426.49363595171405,-434.65202267790113,-821.5830709437217,11253.008097768796,0.0,0.0,0.0,0.0,140.53,146.96,140.25,145.04,151.14,Open
827,-467.1961626048282,-468.7384329722444,-879.8540687387073,11013.553859419091,0.0,0.0,0.0,0.0,140.53,146.96,140.25,145.04,151.14,Open
828,-461.51881951318023,-459.2612933231942,-875.2719611253692,10858.455104643715,0.0,0.0,0.0,0.0,140.53,146.96,140.25,145.04,151.14,Open
829,-409.05927527657457,-415.7871503576219,-804.6851521355096,11046.18740632384,0.0,0.0,0.0,0.0,140.53,146.96,140.25,145.04,151.14,Open
830,-391.624914601435,-403.06900776255225,-782.8474978026745,11279.383156226058,0.0,0.0,0.0,0.0,140.53,146.96,140.25,145.04,151.14,Open
831,-436.5742727010576,-441.84928439251,-831.2390245484144,11249.387115167036,0.0,0.0,0.0,0.0,140.53,146.96,140.25,145.04,151.14,Open
832,-489.0338169376632,-484.4517093243253,-893.1980601785256,11010.89400182891,0.0,0.0,0.0,0.0,140.53,146.96,140.25,145.04,151.14,Open
833,-464.7821742036551,-462.5693515025797,-870.5110395563888,10858.097476732431,0.0,0.0,0.0,0.0,140.53,146.96,140.25,145.04,151.14,Open
834,-405.7512170971891,-409.4392549323148,-802.6287916456213,11048.824912169566,0.0,0.0,0.0,0.0,139.28,147.24,141.28,145.2,150.59,Open
835,-398.4869001492143,-407.4052461868818,-790.0000560283728,11277.863237603098,0.0,0.0,0.0,0.0,139.28,147.24,141.28,145.2,150.59,Open
836,-442.02809834815247,-447.81720016207703,-838.9056728965846,11249.543577378225,0.0,0.0,0.0,0.0,139.28,147.24,141.28,145.2,150.59,Open
837,-483.7811569906661,-483.1106046570068,-890.3593886327016,11010.6481326399,0.0,0.0,0.0,0.0,139.28,147.24,141.28,145.2,150.59,Open
838,-471.7112149848003,-468.6043225055126,-877.2389146374363,10857.650441843323,0.0,0.0,0.0,0.0,139.28,147.24,141.28,145.2,150.59,Open
839,-417.17295851385103,-421.173920771351,-807.6132306591547,11047.930842391354,0.0,0.0,0.0,0.0,139.28,147.24,141.28,145.2,150.59,Open
840,-400.38679842791544,-413.77549335664435,-789.9330007950069,11281.014833571297,0.0,0.0,0.0,0.0,139.28,147.24,141.28,145.2,150.59,Open
841,-447.39251701742614,-456.08734561054064,-842.3925450316126,11249.74474307832,0.0,0.0,0.0,0.0,139.28,147.24,141.28,145.2,150.59,Open
842,-491.8724884834873,-491.85013673903194,-899.5459556038327,11007.474184927249,0.0,0.0,0.0,0.0,139.28,147.24,141.28,145.2,150.59,Open
843,-477.8132412210991,-473.27583709667175,-884.5926385632323,10857.538683121047,0.0,0.0,0.0,0.0,139.28,147.24,141.28,145.2,150.59,Open
844,-419.18461551482864,-422.2021010162951,-814.1175882956492,11050.590699981536,0.0,0.0,0.0,0.0,139.28,147.24,141.28,145.2,150.59,Open
845,-394.79886231408864,-410.5568421550801,-791.8552508181633,11283.719394650388,0.0,0.0,0.0,0.0,139.28,147.24,141.28,145.2,150.59,Open
846,-444.48679023823627,-456.2438078217278,-843.4654287654673,11247.509568632791,0.0,0.0,0.0,0.0,139.28,147.24,141.28,145.2,150.59,Open
847,-501.2602211547162,-496.94633447484193,-906.8102725518077,11004.769623848157,0.0,0.0,0.0,0.0,139.28,147.24,141.28,145.2,150.59,Open
848,-489.9725902047861,-485.90457271392023,-894.8967927571289,10858.119828476883,0.0,0.0,0.0,0.0,139.28,147.24,141.28,145.2,150.59,Open
849,-426.6053946739906,-431.23220577623914,-820.1302075541267,11056.983298895751,0.0,0.0,0.0,0.0,139.28,147.24,141.28,145.2,150.59,Open
850,-418.6928771368119,-427.2312435187392,-806.0486085472833,11285.75340339582,0.0,0.0,0.0,0.0,139.25,146.07,139.9,142.77,147.95,Open
851,-465.1621538593953,-469.8113167060991,-859.7151469844755,11245.98965000983,0.0,0.0,0.0,0.0,139.25,146.07,139.9,142.77,147.95,Open
852,-496.1416716744509,-494.4205873513922,-906.3855894071568,11004.07671977004,0.0,0.0,0.0,0.0,139.25,146.07,139.9,142.77,147.95,Open
853,-484.02702617967446,-477.8355929655544,-890.3370368882462,10858.72332557718,0.0,0.0,0.0,0.0,139.25,146.07,139.9,142.77,147.95,Open
854,-418.26819399216106,-421.0398103046191,-813.0223528173391,11056.37980179546,0.0,0.0,0.0,0.0,139.25,146.07,139.9,142.77,147.95,Open
855,-414.2672317346611,-424.3702202284599,-802.6287916456213,11281.595978927136,0.0,0.0,0.0,0.0,139.25,146.07,139.9,142.77,147.95,Open
856,-466.2797410821606,-472.60528476301255,-859.4022225621012,11246.548443621212,0.0,0.0,0.0,0.0,139.25,146.07,139.9,142.77,147.95,Open
857,-502.0201804661966,-498.2203839087944,-906.9667347629946,11002.847373825,0.0,0.0,0.0,0.0,139.25,146.07,139.9,142.77,147.95,Open
858,-487.5362500591576,-481.7471482452331,-891.4993275999221,10860.444409900238,0.0,0.0,0.0,0.0,139.25,146.07,139.9,142.77,147.95,Open
859,-421.08451379352977,-426.09130455151853,-816.3080592522692,11058.994955896733,0.0,0.0,0.0,0.0,139.25,146.07,139.9,142.77,147.95,Open
860,-417.97762131424207,-427.5888714300241,-804.9533730689733,11285.239313273349,0.0,0.0,0.0,0.0,139.25,146.07,139.9,142.77,147.95,Open
861,-468.11258412749584,-472.8288022075656,-861.5256382853554,11245.117931976072,0.0,0.0,0.0,0.0,139.25,146.07,139.9,142.77,147.95,Open
862,-515.1630062059172,-511.87729977098707,-918.9696215354944,10999.472260412247,0.0,0.0,0.0,0.0,139.25,146.07,139.9,142.77,147.95,Open
863,-493.81709025109893,-488.0279884371744,-895.5896968352433,10858.656270343814,0.0,0.0,0.0,0.0,139.25,146.07,139.9,142.77,147.95,Open
864,-428.0806098080409,-432.10392380999616,-819.571413942744,11060.269005330683,0.0,0.0,0.0,0.0,139.25,146.07,139.9,142.77,147.95,Open
865,-419.0058015591862,-429.9805080867419,-810.4519022049788,11285.865162118098,0.0,0.0,0.0,0.0,139.25,146.07,139.9,142.77,147.95,Open
866,-475.24279060873874,-480.2495813667276,-869.281693611347,11242.145149963517,0.0,0.0,0.0,0.0,139.25,146.07,139.9,142.77,147.95,Open
867,-517.7558085627328,-512.8831282714758,-922.3670866927012,10996.253609210684,0.0,0.0,0.0,0.0,139.37,147.46,141.55,145.68,151.33,Open
868,-493.7276832732777,-486.2845523696605,-896.3049526578133,10860.936148278255,0.0,0.0,0.0,0.0,139.37,147.46,141.55,145.68,151.33,Open
869,-434.4732087222587,-435.5013889672028,-822.6336029331211,11064.649947243925,0.0,0.0,0.0,0.0,139.37,147.46,141.55,145.68,151.33,Open
870,-432.3944964879151,-440.5305314696469,-814.3858092291129,11285.865162118098,0.0,0.0,0.0,0.0,139.37,147.46,141.55,145.68,151.33,Open
871,-475.22043886428344,-480.6519127669231,-866.5100772988889,11242.435722641436,0.0,0.0,0.0,0.0,139.37,147.46,141.55,145.68,151.33,Open
872,-520.1697969639059,-514.0901224720625,-926.1668832501034,10996.633588866423,0.0,0.0,0.0,0.0,139.37,147.46,141.55,145.68,151.33,Open
873,-492.654799539423,-487.31273261460456,-896.3496561467239,10859.684450588758,0.0,0.0,0.0,0.0,139.37,147.46,141.55,145.68,151.33,Open
874,-428.9076243528872,-435.0096505891861,-818.0514953197832,11066.99688041173,0.0,0.0,0.0,0.0,139.37,147.46,141.55,145.68,151.33,Open
875,-420.5257201821471,-431.7015924098006,-808.8872800931073,11288.703833663922,0.0,0.0,0.0,0.0,139.37,147.46,141.55,145.68,151.33,Open
876,-478.70731099931135,-481.0989476560292,-869.4605075669895,11240.312306918182,0.0,0.0,0.0,0.0,139.37,147.46,141.55,145.68,151.33,Open
877,-518.8286922965875,-514.8053782946323,-922.5906041372544,10993.481992898223,0.0,0.0,0.0,0.0,139.37,147.46,141.55,145.68,151.33,Open
878,-495.9181542298978,-491.5819158055682,-899.1883276925478,10861.182017467265,0.0,0.0,0.0,0.0,139.37,147.46,141.55,145.68,151.33,Open
879,-446.05141235010774,-447.83955190653234,-834.3459170277021,11067.823894956577,0.0,0.0,0.0,0.0,139.37,147.46,141.55,145.68,151.33,Open
880,-430.62870867594586,-439.7482204137111,-818.2079575309704,11287.362728996604,0.0,0.0,0.0,0.0,139.37,147.46,141.55,145.68,151.33,Open
881,-478.5284970436689,-482.4400523233476,-873.7520425024084,11239.686458073433,0.0,0.0,0.0,0.0,139.37,147.46,141.55,145.68,151.33,Open
882,-530.9880412802746,-525.1318842329841,-937.633328155676,10991.336225430516,0.0,0.0,0.0,0.0,139.37,147.46,141.55,145.68,151.33,Open
