sample_index,EXG Channel 0,EXG Channel 1,EXG Channel 2,EXG Channel 3,EXG Channel 4,EXG Channel 5,EXG Channel 6,EXG Channel 7,thumb_ext_angle,index_ext_angle,middle_ext_angle,ring_ext_angle,pinky_ext_angle,hand_state
0,9228.610602451636,7120.997562527366,5041.100685727678,10441.125683918675,0.0,0.0,0.0,0.0,101.76,99.78,91.16,97.11,117.41,Open
1,9245.754390448856,7157.587368200704,5074.516543688363,10456.54838759284,0.0,0.0,0.0,0.0,101.76,99.78,91.16,97.11,117.41,Open
2,9464.10858203275,7195.004188418889,5099.639904456128,10676.0201663995,0.0,0.0,0.0,0.0,101.76,99.78,91.16,97.11,117.41,Open
3,0.0,0.0,0.0,0.0,0.0,0.0,0.0,0.0,101.52,99.78,91.46,96.67,115.53,Open
4,3769.241722731796,312.81266365202237,328.2577190706395,10895.268427761606,0.0,0.0,0.0,0.0,101.52,99.78,91.46,96.67,115.53,Open
5,3641.121523513976,133.9316527761999,174.74593815159062,10389.739023415928,0.0,0.0,0.0,0.0,101.52,99.78,91.46,96.67,115.53,Open
6,3613.4500638783056,-73.58194274687085,137.44087665568313,9835.28165045758,0.0,0.0,0.0,0.0,101.52,99.78,91.46,96.67,115.53,Open
7,3783.1892112719074,265.98575901815406,333.2198063397177,10137.611345960064,0.0,0.0,0.0,0.0,101.52,99.78,91.46,96.67,115.53,Open
8,3858.536941830748,447.5713309730686,431.8580546209878,10812.32110408796,0.0,0.0,0.0,0.0,101.52,99.78,91.46,96.67,115.53,Open
9,3757.641167359491,339.14301862037405,320.434608511282,10896.430718473282,0.0,0.0,0.0,0.0,100.81,100.09,91.83,98.56,115.07,Open
10,3650.53160792966,190.3027522924843,181.92084812174417,10390.566037960773,0.0,0.0,0.0,0.0,100.81,100.09,91.83,98.56,115.07,Open
11,3638.1263897569647,-3.732741324036279,154.60701639735896,9836.309830702525,0.0,0.0,0.0,0.0,100.81,100.09,91.83,98.56,115.07,Open
12,3771.141621010497,266.4774973961708,323.4520940127485,10136.493758737295,0.0,0.0,0.0,0.0,100.81,100.09,91.83,98.56,115.07,Open
13,3839.314441599184,472.33706382954887,419.20696725928394,10810.957647676189,0.0,0.0,0.0,0.0,100.81,100.09,91.83,98.56,115.07,Open
14,3753.304928935162,378.8173650285441,318.0429718545642,10894.217895772206,0.0,0.0,0.0,0.0,100.81,100.09,91.83,98.56,115.07,Open
15,3634.1030757550097,213.9508979261992,171.5272869500264,10385.089860569222,0.0,0.0,0.0,0.0,100.81,100.09,91.83,98.56,115.07,Open
16,3610.14200569892,-3.620982601759744,133.9093010317446,9834.052304512536,0.0,0.0,0.0,0.0,100.81,100.09,91.83,98.56,115.07,Open
17,3764.950187796377,288.0245790510868,316.6571636983352,10141.165273328455,0.0,0.0,0.0,0.0,100.81,100.09,91.83,98.56,115.07,Open
18,3836.811046220189,514.3136399166156,418.044676547608,10814.869202955866,0.0,0.0,0.0,0.0,100.81,100.09,91.83,98.56,115.07,Open
19,3746.465295131838,416.4577026912812,313.5055677301369,10894.128488794386,0.0,0.0,0.0,0.0,100.81,100.09,91.83,98.56,115.07,Open
20,3599.1225956824537,232.77106675756775,147.20858898265232,10384.553418702297,0.0,0.0,0.0,0.0,100.81,100.09,91.83,98.56,115.07,Open
21,3619.127406969954,55.92406462717827,141.97828078011045,9832.80060682304,0.0,0.0,0.0,0.0,100.81,100.09,91.83,98.56,115.07,Open
22,3793.7392346548127,336.77373370811154,345.3121000900388,10143.95924138537,0.0,0.0,0.0,0.0,100.81,100.09,91.83,98.56,115.07,Open
23,3848.9256917149655,565.7226521638217,431.1427987984179,10817.551412290504,0.0,0.0,0.0,0.0,100.81,100.09,91.83,98.56,115.07,Open
24,3752.097934734576,464.4692497812808,322.2227480677066,10892.899142849345,0.0,0.0,0.0,0.0,100.81,100.09,91.83,98.56,115.07,Open
25,3637.9699275457774,306.9118031158213,177.8751823753336,10382.00531983439,0.0,0.0,0.0,0.0,100.81,100.09,91.83,98.56,115.07,Open
26,3613.181842944842,93.96673369011089,140.88304530180042,9831.057170755526,0.0,0.0,0.0,0.0,100.94,100.1,91.43,97.89,116.0,Open
27,3761.5974261280808,351.7270507487119,320.5463672335586,10142.998116373792,0.0,0.0,0.0,0.0,100.94,100.1,91.43,97.89,116.0,Open
28,3838.777999732256,588.9908181417964,421.5986039160018,10816.970266934666,0.0,0.0,0.0,0.0,100.94,100.1,91.43,97.89,116.0,Open
29,3734.931794992899,480.6966162558337,307.9399833607654,10889.479325947685,0.0,0.0,0.0,0.0,100.94,100.1,91.43,97.89,116.0,Open
30,3623.5977558610152,323.0944661014636,164.06180430195383,10380.105421555689,0.0,0.0,0.0,0.0,100.94,100.1,91.43,97.89,116.0,Open
31,3614.657058078892,106.95309721864427,136.993841766577,9832.934717289772,0.0,0.0,0.0,0.0,100.94,100.1,91.43,97.89,116.0,Open
32,3766.9618447973544,366.4792020892146,322.7368381901787,10148.608404232074,0.0,0.0,0.0,0.0,100.94,100.1,91.43,97.89,116.0,Open
33,3817.365028544072,604.7487979827879,408.075798520541,10819.227793124652,0.0,0.0,0.0,0.0,100.94,100.1,91.43,97.89,116.0,Open
34,3725.432303599394,510.98322999277474,303.38022749188275,10890.932189337276,0.0,0.0,0.0,0.0,100.94,100.1,91.43,97.89,116.0,Open
35,3625.542357628626,359.10312641896326,168.21922877064097,10379.05488956629,0.0,0.0,0.0,0.0,100.94,100.1,91.43,97.89,116.0,Open
36,3619.9767732592554,142.64883311376968,144.23580697009646,9832.934717289772,0.0,0.0,0.0,0.0,100.94,100.1,91.43,97.89,116.0,Open
37,3757.618815615036,401.39262692840424,320.70282944474576,10147.267299564755,0.0,0.0,0.0,0.0,100.94,100.1,91.43,97.89,116.0,Open
38,3828.943232171921,653.4308974064467,419.8998713373985,10820.591249536426,0.0,0.0,0.0,0.0,100.94,100.1,91.43,97.89,116.0,Open
39,3736.608175827047,554.7032421473554,312.3879805073715,10890.038119559063,0.0,0.0,0.0,0.0,100.94,100.1,91.43,97.89,116.0,Open
40,3621.6755058378585,374.0340917151084,166.69931014768008,10377.825543621248,0.0,0.0,0.0,0.0,100.94,100.1,91.43,97.89,116.0,Open
41,3610.0973022100097,144.5710831369261,137.53028363350435,9834.879319057383,0.0,0.0,0.0,0.0,100.94,100.1,91.43,97.89,116.0,Open
42,3758.334071437606,405.9300310528316,320.8816434003882,10152.877587423038,0.0,0.0,0.0,0.0,100.94,100.1,91.43,97.89,116.0,Open
43,3859.498066842326,710.9866393788624,443.59272046002394,10822.625258281858,0.0,0.0,0.0,0.0,100.94,100.1,91.43,97.89,116.0,Open
44,3765.2854639632064,616.2152428883604,337.0196028971199,10888.898180591845,0.0,0.0,0.0,0.0,100.94,100.1,91.43,97.89,116.0,Open
45,3643.691974126336,425.10782779548504,185.89945863478883,10377.043232565313,0.0,0.0,0.0,0.0,100.94,100.1,91.43,97.89,116.0,Open
46,3614.008857489688,173.71775790664648,150.20372273966345,9831.839481811465,0.0,0.0,0.0,0.0,100.94,100.1,91.43,97.89,116.0,Open
47,3778.0259583027314,444.6656041938787,344.0827541449969,10152.788180445215,0.0,0.0,0.0,0.0,100.94,100.1,91.43,97.89,116.0,Open
48,3867.9917297353422,754.6619480445323,454.0309851206523,10825.307467616496,0.0,0.0,0.0,0.0,100.94,100.1,91.43,97.89,116.0,Open
49,3774.6061414010696,666.1266882570611,351.57058853752477,10889.948712581245,0.0,0.0,0.0,0.0,100.94,100.1,91.43,97.89,116.0,Open
50,3660.858113868012,479.266104610694,207.6924094787132,10374.875113353148,0.0,0.0,0.0,0.0,100.94,100.1,91.43,97.89,116.0,Open
51,3645.882445082956,236.21323540368505,179.21628704265203,9831.168929477804,0.0,0.0,0.0,0.0,101.51,99.93,92.24,96.73,112.74,Open
52,3800.489461480315,480.0260639221745,369.7872602686001,10149.278956565731,0.0,0.0,0.0,0.0,101.51,99.93,92.24,96.73,112.74,Open
53,3890.1199567460967,803.0087713013615,481.3448168450376,10822.737017004136,0.0,0.0,0.0,0.0,101.51,99.93,92.24,96.73,112.74,Open
54,3804.065740593164,725.1799971079823,380.4713941182368,10892.653273660337,0.0,0.0,0.0,0.0,101.51,99.93,92.24,96.73,112.74,Open
55,3681.689939700358,513.4866253717692,229.7982847450119,10375.210389519976,0.0,0.0,0.0,0.0,101.51,99.93,92.24,96.73,112.74,Open
56,3668.6141691940034,276.7816515900674,194.5942872279033,9832.867662056406,0.0,0.0,0.0,0.0,101.51,99.93,92.24,96.73,112.74,Open
57,3830.172578116963,512.9501835048418,396.207022214773,10157.258529336275,0.0,0.0,0.0,0.0,101.51,99.93,92.24,96.73,112.74,Open
58,3913.164605279518,841.8784549091405,513.0619422271183,10830.068389185475,0.0,0.0,0.0,0.0,101.51,99.93,92.24,96.73,112.74,Open
59,3862.5826075771583,817.1350737971156,439.54705471361336,10892.54151493806,0.0,0.0,0.0,0.0,101.51,99.93,92.24,96.73,112.74,Open
60,3764.950187796377,613.8459579760979,304.2519455256397,10374.91981684206,0.0,0.0,0.0,0.0,101.51,99.93,92.24,96.73,112.74,Open
61,3738.396315383472,365.4733735887258,232.54754931301468,9834.097008001449,0.0,0.0,0.0,0.0,101.51,99.93,92.24,96.73,112.74,Open
62,3902.145195263052,596.2998385786818,448.28658679563847,10164.992232917812,0.0,0.0,0.0,0.0,101.51,99.93,92.24,96.73,112.74,Open
63,3979.996321200886,929.7878658518632,576.7420621802881,10833.28704038704,0.0,0.0,0.0,0.0,101.51,99.93,92.24,96.73,112.74,Open
64,3888.801203823233,878.3341501157463,476.6733022538784,10895.53664869507,0.0,0.0,0.0,0.0,101.51,99.93,92.24,96.73,112.74,Open
65,3794.4991939662928,655.5990166186115,343.7474779781673,10375.81388662027,0.0,0.0,0.0,0.0,101.51,99.93,92.24,96.73,112.74,Open
66,3784.1056327945753,433.4003249884039,270.858439309411,9837.583880136475,0.0,0.0,0.0,0.0,101.51,99.93,92.24,96.73,112.74,Open
67,3963.3442715816823,668.7641941027873,500.41085486541454,10168.568512030664,0.0,0.0,0.0,0.0,101.2,99.97,91.32,97.92,116.47,Open
68,4057.132191316151,1017.2949453943904,651.3074816831925,10838.226775911662,0.0,0.0,0.0,0.0,101.2,99.97,91.32,97.92,116.47,Open
69,3962.4725535479256,981.3309885658012,545.6284338985007,10893.860267860922,0.0,0.0,0.0,0.0,101.2,99.97,91.32,97.92,116.47,Open
70,3841.1249329000634,704.1023020866278,392.2954669350943,10372.192904018511,0.0,0.0,0.0,0.0,101.2,99.97,91.32,97.92,116.47,Open
71,3832.340697329128,503.94243048935306,327.6765737148015,9836.980383036183,0.0,0.0,0.0,0.0,101.2,99.97,91.32,97.92,116.47,Open
72,4018.642487364112,742.3684885941135,562.2357800287939,10169.239064364325,0.0,0.0,0.0,0.0,101.2,99.97,91.32,97.92,116.47,Open
73,4121.348753136248,1081.1315275587474,721.4025522950354,10837.556223578003,0.0,0.0,0.0,0.0,101.2,99.97,91.32,97.92,116.47,Open
74,4030.421856692059,1074.9624460890825,619.1656731564609,10896.006035328632,0.0,0.0,0.0,0.0,101.2,99.97,91.32,97.92,116.47,Open
75,3906.146157520552,772.9456750089736,460.58004624605735,10373.981043574937,0.0,0.0,0.0,0.0,101.2,99.97,91.32,97.92,116.47,Open
76,3888.91296254551,585.9509808958746,376.917466749843,9839.215557481712,0.0,0.0,0.0,0.0,101.2,99.97,91.32,97.92,116.47,Open
77,4077.874610170675,828.154483813582,613.8683097205532,10175.72107025636,0.0,0.0,0.0,0.0,101.2,99.97,91.32,97.92,116.47,Open
78,4181.184373043105,1160.1672959527132,784.0991954921717,10843.8594155144,0.0,0.0,0.0,0.0,101.2,99.97,91.32,97.92,116.47,Open
79,4086.077700385774,1141.1459614212467,682.2646477537928,10895.894276606356,0.0,0.0,0.0,0.0,101.2,99.97,91.32,97.92,116.47,Open
80,3977.8952572220874,809.2002045154816,527.0764860005959,10374.361023230676,0.0,0.0,0.0,0.0,101.2,99.97,91.32,97.92,116.47,Open
81,3963.076050648219,681.549391931223,428.0582580635856,9837.89680455885,0.0,0.0,0.0,0.0,101.2,99.97,91.32,97.92,116.47,Open
82,4126.154378194139,902.0717027272824,650.1675427159719,10179.990253447326,0.0,0.0,0.0,0.0,101.2,99.97,91.32,97.92,116.47,Open
83,4217.841233949809,1211.5316047110086,824.2205767894479,10848.9109097613,0.0,0.0,0.0,0.0,100.96,100.01,91.91,98.38,115.45,Open
84,4143.409924913636,1213.4538547341651,737.3393460916694,10897.01186382912,0.0,0.0,0.0,0.0,100.96,100.01,91.91,98.38,115.45,Open
85,4009.970010515453,841.4537717644897,565.879114375009,10372.751697629894,0.0,0.0,0.0,0.0,100.96,100.01,91.91,98.38,115.45,Open
86,3992.0215597178417,740.5579972932336,454.9027031544093,9838.99204003716,0.0,0.0,0.0,0.0,100.96,100.01,91.91,98.38,115.45,Open
87,4177.652797419167,967.9646453815276,697.6873514279547,10185.980520961348,0.0,0.0,0.0,0.0,100.96,100.01,91.91,98.38,115.45,Open
88,4276.626321867267,1263.2758931250446,884.4361763520452,10853.560072608005,0.0,0.0,0.0,0.0,100.96,100.01,91.91,98.38,115.45,Open
89,4185.051224833873,1270.2049339061898,784.7920995702863,10898.77765164109,0.0,0.0,0.0,0.0,100.96,100.01,91.91,98.38,115.45,Open
90,4069.6938717000335,916.9579645345168,617.7351615113213,10373.355194730186,0.0,0.0,0.0,0.0,100.96,100.01,91.91,98.38,115.45,Open
91,4070.833810667254,844.2924433103137,503.18247117787257,9841.204862738236,0.0,0.0,0.0,0.0,100.96,100.01,91.91,98.38,115.45,Open
92,4228.391257332713,1045.0334602634264,736.28881410227,10188.506268084797,0.0,0.0,0.0,0.0,100.96,100.01,91.91,98.38,115.45,Open
93,4310.489214717057,1305.2077657232005,922.5906041372544,10855.415267397791,0.0,0.0,0.0,0.0,100.96,100.01,91.91,98.38,115.45,Open
94,4220.277574095438,1294.5012801291086,825.1593500565708,10898.889410363368,0.0,0.0,0.0,0.0,100.96,100.01,91.91,98.38,115.45,Open
95,4103.020322682896,940.986089823972,656.3813276745472,10372.52818018534,0.0,0.0,0.0,0.0,100.96,100.01,91.91,98.38,115.45,Open
96,4097.655904013623,899.277734670369,531.3233174471042,9844.848197084451,0.0,0.0,0.0,0.0,100.96,100.01,91.91,98.38,115.45,Open
97,4267.260940940492,1106.4337022821549,776.0525674882612,10190.83084950815,0.0,0.0,0.0,0.0,100.96,100.01,91.91,98.38,115.45,Open
98,4353.091639648872,1329.6605741573069,970.8703721607176,10856.443447642738,0.0,0.0,0.0,0.0,100.96,100.01,91.91,98.38,115.45,Open
99,4267.707975829599,1287.751053303606,878.5800193047547,10901.21399178672,0.0,0.0,0.0,0.0,100.96,100.01,91.91,98.38,115.45,Open
100,4148.77434358291,986.404834557156,701.3306857741698,10375.322148242254,0.0,0.0,0.0,0.0,100.96,100.01,91.91,98.38,115.45,Open
101,4132.122293963706,958.8674853882176,565.4767829748134,9847.552758163543,0.0,0.0,0.0,0.0,100.96,100.01,91.91,98.38,115.45,Open
102,4309.9751245945845,1173.6453978592633,805.4674631914453,10196.1058611996,0.0,0.0,0.0,0.0,100.96,100.01,91.91,98.38,115.45,Open
103,4400.432634405212,1288.935695759737,1013.8974802371836,10864.601834368925,0.0,0.0,0.0,0.0,100.96,100.01,91.91,98.38,115.45,Open
104,4304.253078014026,1190.632723645297,912.1970429655364,10907.181907556283,0.0,0.0,0.0,0.0,100.96,100.01,91.91,98.38,115.45,Open
105,4169.114431037239,1021.9888117300048,722.0507528842394,10377.154991287587,0.0,0.0,0.0,0.0,100.96,100.01,91.91,98.38,115.45,Open
106,4158.877332076709,1011.7740645139296,592.2318210878159,9850.927871576294,0.0,0.0,0.0,0.0,100.96,100.01,91.91,98.38,115.45,Open
107,4343.502741277545,1234.352735799877,838.3692310296573,10198.273980411766,0.0,0.0,0.0,0.0,100.96,100.01,91.91,98.38,115.45,Open
108,4440.196387791203,1354.359251780421,1050.822562077351,10864.981814024666,0.0,0.0,0.0,0.0,100.96,100.01,91.91,98.38,115.45,Open
109,4345.246177345059,1247.0932301394023,953.7712876524076,10909.417082001815,0.0,0.0,0.0,0.0,101.08,99.9,91.64,97.97,116.23,Open
110,4230.671135267155,1106.1431296042358,769.5482098517668,10378.205523276987,0.0,0.0,0.0,0.0,101.08,99.9,91.64,97.97,116.23,Open
111,4207.40296928918,1081.0421205809262,629.5145308392681,9851.62077565441,0.0,0.0,0.0,0.0,101.08,99.9,91.64,97.97,116.23,Open
112,4367.396756100268,1282.2078206786896,863.2020191195035,10198.095166456123,0.0,0.0,0.0,0.0,101.08,99.9,91.64,97.97,116.23,Open
113,4447.103076827893,1383.2153538722223,1069.083937297337,10865.38414542486,0.0,0.0,0.0,0.0,101.08,99.9,91.64,97.97,116.23,Open
114,4358.43370657369,1282.2078206786896,973.8431541732734,10911.316980280517,0.0,0.0,0.0,0.0,101.08,99.9,91.64,97.97,116.23,Open
115,4237.98015570404,1140.1848364096686,784.1438989810823,10381.848857623205,0.0,0.0,0.0,0.0,101.08,99.9,91.64,97.97,116.23,Open
116,4247.07731569735,1145.75042077904,668.2948074692258,9855.845255356462,0.0,0.0,0.0,0.0,101.08,99.9,91.64,97.97,116.23,Open
117,4424.796035861496,1359.231932071678,903.2339934389584,10203.794861292226,0.0,0.0,0.0,0.0,101.08,99.9,91.64,97.97,116.23,Open
118,4507.519842090588,1465.380366489931,1112.848652940828,10868.714555348704,0.0,0.0,0.0,0.0,101.08,99.9,91.64,97.97,116.23,Open
119,4407.1828612307145,1350.134772078368,1016.7808552719184,10909.126509323896,0.0,0.0,0.0,0.0,101.08,99.9,91.64,97.97,116.23,Open
120,4290.417348196191,1207.7988633869725,827.6627454355652,10377.222046520954,0.0,0.0,0.0,0.0,101.08,99.9,91.64,97.97,116.23,Open
121,4275.329920688859,1193.136119024291,693.70874091491,9852.71601113272,0.0,0.0,0.0,0.0,101.08,99.9,91.64,97.97,116.23,Open
122,4439.369373246357,1394.033598188591,922.2329762259694,10204.376006648065,0.0,0.0,0.0,0.0,101.08,99.9,91.64,97.97,116.23,Open
123,4528.195205711747,1505.3229338315648,1136.6085572968195,10869.38510768236,0.0,0.0,0.0,0.0,101.08,99.9,91.64,97.97,116.23,Open
124,4430.4957306976,1393.4971563216636,1044.5864253743202,10909.953523868744,0.0,0.0,0.0,0.0,101.08,99.9,91.64,97.97,116.23,Open
125,4301.235592512559,1243.271081837545,842.280786309336,10375.255093008887,0.0,0.0,0.0,0.0,101.27,99.09,91.21,97.48,116.55,Open
126,4290.149127262727,1228.518930497042,714.1382353470607,9852.4254384548,0.0,0.0,0.0,0.0,101.27,99.09,91.21,97.48,116.55,Open
127,4457.630748466343,1434.7808283306156,942.081325302282,10206.834698538149,0.0,0.0,0.0,0.0,101.27,99.09,91.21,97.48,116.55,Open
128,4544.981365797683,1544.8855215174583,1158.8038395409394,10872.424944928283,0.0,0.0,0.0,0.0,101.27,99.09,91.21,97.48,116.55,Open
129,4453.78624842003,1438.513569654652,1071.1179460427695,10909.126509323896,0.0,0.0,0.0,0.0,101.27,99.09,91.21,97.48,116.55,Open
130,4330.516377749012,1292.3331609169438,870.2428186229251,10375.232741264432,0.0,0.0,0.0,0.0,101.27,99.09,91.21,97.48,116.55,Open
131,4325.531938735478,1282.878373012349,746.2800438737922,9856.269938501113,0.0,0.0,0.0,0.0,101.27,99.09,91.21,97.48,116.55,Open
132,4498.534440819555,1495.0411313821237,980.14634610967,10214.25547769731,0.0,0.0,0.0,0.0,101.27,99.09,91.21,97.48,116.55,Open
133,4571.579941699498,1594.3946354859634,1185.1118427648355,10874.257787973618,0.0,0.0,0.0,0.0,101.27,99.09,91.21,97.48,116.55,Open
134,4473.902818429807,1480.8477736530035,1096.4201207661774,10905.505526722138,0.0,0.0,0.0,0.0,101.27,99.09,91.21,97.48,116.55,Open
135,4352.801066970953,1333.5944811814406,893.6897985565423,10373.757526130385,0.0,0.0,0.0,0.0,101.27,99.09,91.21,97.48,116.55,Open
136,4379.019663217028,1356.9073506483255,791.1399949955935,9854.772371622608,0.0,0.0,0.0,0.0,101.27,99.09,91.21,97.48,116.55,Open
137,4536.4206476713,1552.216893698799,1014.3892186152004,10220.87159405608,0.0,0.0,0.0,0.0,101.27,99.09,91.21,97.48,116.55,Open
138,4604.48170953771,1644.4848948103063,1219.3770670148217,10879.62220664289,0.0,0.0,0.0,0.0,101.27,99.09,91.21,97.48,116.55,Open
139,4543.908482063828,1567.3937281839524,1155.4734296170986,10902.711558665223,0.0,0.0,0.0,0.0,101.27,99.09,91.21,97.48,116.55,Open
140,4419.856300336874,1416.3629908994426,939.1755985230922,10366.515560926862,0.0,0.0,0.0,0.0,101.27,99.09,91.21,97.48,116.55,Open
141,4401.34905592788,1396.0676069340238,812.5306144393223,9852.581900665988,0.0,0.0,0.0,0.0,101.22,99.53,90.81,96.78,115.62,Open
142,4568.607159686942,1602.9777053568014,1039.2890619384125,10225.990143536346,0.0,0.0,0.0,0.0,101.22,99.53,90.81,96.78,115.62,Open
143,4653.074401983547,1710.5566514201942,1255.273968610045,10880.985663054666,0.0,0.0,0.0,0.0,101.22,99.53,90.81,96.78,115.62,Open
144,4563.1980375287585,1603.4470919903629,1178.003988028048,10900.16345979732,0.0,0.0,0.0,0.0,101.22,99.53,90.81,96.78,115.62,Open
145,4438.944690101706,1455.7467646296936,961.1026598337484,10364.883883581626,0.0,0.0,0.0,0.0,101.22,99.53,90.81,96.78,115.62,Open
146,4421.465625937656,1437.4406859207973,839.5538734857886,9853.18539776628,0.0,0.0,0.0,0.0,101.22,99.53,90.81,96.78,115.62,Open
147,4594.66929372183,1648.5082088122615,1068.8604198527837,10225.386646436054,0.0,0.0,0.0,0.0,101.22,99.53,90.81,96.78,115.62,Open
148,4683.584533165042,1760.244579344342,1291.841422538927,10881.253883988127,0.0,0.0,0.0,0.0,101.22,99.53,90.81,96.78,115.62,Open
149,4573.90452312285,1636.1029906395663,1198.9252208382156,10902.488041220671,0.0,0.0,0.0,0.0,101.22,99.53,90.81,96.78,115.62,Open
150,4451.126390829849,1490.481375513241,978.2687995754242,10368.035479549824,0.0,0.0,0.0,0.0,101.22,99.53,90.81,96.78,115.62,Open
151,4456.177885076748,1491.084872613534,876.9483419595173,9854.861778600429,0.0,0.0,0.0,0.0,101.22,99.53,90.81,96.78,115.62,Open
152,4619.971468445238,1697.1232530025547,1095.6378097102415,10219.530489388764,0.0,0.0,0.0,0.0,101.22,99.53,90.81,96.78,115.62,Open
153,4704.014027597193,1803.495204865361,1314.7296088611615,10880.181000254272,0.0,0.0,0.0,0.0,101.22,99.53,90.81,96.78,115.62,Open
154,4613.824738720029,1695.6033343795937,1238.398401546288,10906.15372731134,0.0,0.0,0.0,0.0,101.22,99.53,90.81,96.78,115.62,Open
155,4491.31482736049,1547.5230273631844,1010.72353252453,10368.81779060576,0.0,0.0,0.0,0.0,101.22,99.53,90.81,96.78,115.62,Open
156,4490.55486804901,1543.8796930169694,911.37002842069,9857.164008279326,0.0,0.0,0.0,0.0,101.22,99.53,90.81,96.78,115.62,Open
157,4666.30663470109,1756.176561853476,1133.2781473729788,10221.810367323204,0.0,0.0,0.0,0.0,100.7,99.95,91.14,97.21,115.13,Open
158,4752.494961320754,1865.65540619557,1352.9510918797364,10883.690224133758,0.0,0.0,0.0,0.0,100.7,99.95,91.14,97.21,115.13,Open
159,4664.227922466746,1760.266931088797,1287.2816666700444,10911.316980280517,0.0,0.0,0.0,0.0,100.7,99.95,91.14,97.21,115.13,Open
160,4531.056229002026,1604.4305687463964,1040.8760357947392,10370.874151095648,0.0,0.0,0.0,0.0,100.7,99.95,91.14,97.21,115.13,Open
161,4494.846402984429,1566.9019898059355,920.2883744583576,9858.058078057538,0.0,0.0,0.0,0.0,100.7,99.95,91.14,97.21,115.13,Open
162,4688.300751245111,1797.460233862428,1153.2829586604785,10222.547974890227,0.0,0.0,0.0,0.0,100.7,99.95,91.14,97.21,115.13,Open
163,4797.243153720278,1925.8039505248012,1387.059853918535,10885.500715434637,0.0,0.0,0.0,0.0,100.7,99.95,91.14,97.21,115.13,Open
164,4694.000446081215,1809.910155524034,1309.7004663587174,10911.451090747249,0.0,0.0,0.0,0.0,100.7,99.95,91.14,97.21,115.13,Open
165,4571.2446655326685,1659.1029356840772,1067.541666929921,10370.181247017534,0.0,0.0,0.0,0.0,100.7,99.95,91.14,97.21,115.13,Open
166,4547.551816410043,1636.7735429732256,970.021005871416,9857.991022824172,0.0,0.0,0.0,0.0,100.7,99.95,91.14,97.21,115.13,Open
167,4729.159740109413,1853.9877955898996,1194.656037647252,10221.45273941192,0.0,0.0,0.0,0.0,100.7,99.95,91.14,97.21,115.13,Open
168,4812.397636460976,1959.1751049965744,1408.5175285956298,10883.57846541148,0.0,0.0,0.0,0.0,100.7,99.95,91.14,97.21,115.13,Open
169,4714.653457957918,1846.388202475095,1331.5604724360076,10910.847593646957,0.0,0.0,0.0,0.0,100.7,99.95,91.14,97.21,115.13,Open
170,4592.925857654316,1697.6373431250267,1092.2850480419456,10372.394069718608,0.0,0.0,0.0,0.0,100.7,99.95,91.14,97.21,115.13,Open
171,4587.784956429596,1691.177688977443,1008.8683377347396,9862.327261248502,0.0,0.0,0.0,0.0,100.7,99.95,91.14,97.21,115.13,Open
172,4760.139257924468,1900.4794240569383,1223.1768635722235,10228.001800537324,0.0,0.0,0.0,0.0,100.7,99.95,91.14,97.21,115.13,Open
173,4843.935947887415,2008.706570709535,1439.1394184994006,10886.350081723938,0.0,0.0,0.0,0.0,100.7,99.95,91.14,97.21,115.13,Open
174,4746.214121128813,1894.4444530540056,1365.6692344748062,10909.618247701914,0.0,0.0,0.0,0.0,100.7,99.95,91.14,97.21,115.13,Open
175,4603.095901381481,1726.1805207944535,1113.4745017855766,10368.504866183384,0.0,0.0,0.0,0.0,100.7,99.95,91.14,97.21,115.13,Open
176,4591.3165320535345,1715.630497411549,1024.1345791977144,9860.025031569605,0.0,0.0,0.0,0.0,100.7,99.95,91.14,97.21,115.13,Open
177,4788.3695111715215,1946.3452036792285,1259.230227378634,10229.633477882562,0.0,0.0,0.0,0.0,100.7,99.95,91.14,97.21,115.13,Open
178,4888.438271097931,2072.8113738073557,1474.633988694428,10888.58525616947,0.0,0.0,0.0,0.0,100.7,99.95,91.14,97.21,115.13,Open
179,4787.542496626675,1954.2577212164072,1400.0238657026132,10911.58520121398,0.0,0.0,0.0,0.0,100.7,99.95,91.14,97.21,115.13,Open
180,4677.683672628841,1816.079236993699,1161.8660285313165,10369.1977702615,0.0,0.0,0.0,0.0,100.7,99.95,91.14,97.21,115.13,Open
181,4662.328024188045,1800.3883123860733,1089.3793212627556,9862.170799037314,0.0,0.0,0.0,0.0,100.7,99.95,91.14,97.21,115.13,Open
182,4826.211014534356,2005.353809041239,1295.5071086295973,10234.50615817382,0.0,0.0,0.0,0.0,100.2,99.07,90.44,97.2,116.3,Open
183,4912.376989409565,2110.518766703459,1505.3005820871094,10889.658139903324,0.0,0.0,0.0,0.0,100.2,99.07,90.44,97.2,116.3,Open
184,4813.157595772457,1994.8931926361552,1429.863444550448,10907.15955581183,0.0,0.0,0.0,0.0,100.2,99.07,90.44,97.2,116.3,Open
185,4683.048091298115,1839.6156239051372,1176.1264414938023,10367.163761516067,0.0,0.0,0.0,0.0,100.2,99.07,90.44,97.2,116.3,Open
186,4676.476678428255,1831.1219610121204,1110.7922924509398,9862.416668226322,0.0,0.0,0.0,0.0,100.2,99.07,90.44,97.2,116.3,Open
187,4848.942738645404,2041.5412833143812,1320.6081176529071,10238.708286131416,0.0,0.0,0.0,0.0,100.2,99.07,90.44,97.2,116.3,Open
188,4938.126199022079,2148.6508427442127,1516.699971759316,10892.072128304497,0.0,0.0,0.0,0.0,100.2,99.07,90.44,97.2,116.3,Open
189,4825.361648245054,2020.5976987597585,1440.8605028224592,10907.472480234204,0.0,0.0,0.0,0.0,100.2,99.07,90.44,97.2,116.3,Open
190,4708.730245677262,1877.3900720346064,1196.6900463926847,10364.794476603804,0.0,0.0,0.0,0.0,100.2,99.07,90.44,97.2,116.3,Open
191,4690.200649523813,1859.0169380923437,1129.1877781376577,9862.103743803948,0.0,0.0,0.0,0.0,100.2,99.07,90.44,97.2,116.3,Open
192,4854.508323014775,2060.674376568124,1333.8179986259936,10238.395361709045,0.0,0.0,0.0,0.0,100.2,99.07,90.44,97.2,116.3,Open
193,4939.4002484560315,2164.118249907285,1531.4297713553633,10892.765032382613,0.0,0.0,0.0,0.0,100.2,99.07,90.44,97.2,116.3,Open
194,4832.558909959664,2042.2788908814064,1456.2385030077105,10907.383073256384,0.0,0.0,0.0,0.0,100.2,99.07,90.44,97.2,116.3,Open
195,4713.066484101592,1897.1266623886424,1207.5082907090534,10365.487380681918,0.0,0.0,0.0,0.0,100.2,99.07,90.44,97.2,116.3,Open
196,4695.498012959721,1879.3570255466732,1137.6814410306745,9861.343784492468,0.0,0.0,0.0,0.0,100.2,99.07,90.44,97.2,116.3,Open
197,4855.670613726451,2075.31476918635,1341.4622952297086,10238.12714077558,0.0,0.0,0.0,0.0,100.2,99.07,90.44,97.2,116.3,Open
198,4954.152399796534,2187.7440437965447,1545.5560738511174,10893.033253316076,0.0,0.0,0.0,0.0,100.2,99.07,90.44,97.2,116.3,Open
199,4848.451000267387,2064.6529870811687,1465.737994401216,10907.316018023015,0.0,0.0,0.0,0.0,101.13,98.96,90.49,96.61,115.26,Open
200,4714.429940513366,1906.648505526603,1208.424712231721,10361.911101569069,0.0,0.0,0.0,0.0,101.13,98.96,90.49,96.61,115.26,Open
201,4703.276420030167,1890.622304752148,1146.555083579431,9860.315604247524,0.0,0.0,0.0,0.0,101.13,98.96,90.49,96.61,115.26,Open
202,4857.2799393272335,2082.26616171195,1345.0385743425577,10242.2175100109,0.0,0.0,0.0,0.0,101.13,98.96,90.49,96.61,115.26,Open
203,4919.350733679621,2165.504058063514,1525.6183177969835,10894.933151594776,0.0,0.0,0.0,0.0,101.13,98.96,90.49,96.61,115.26,Open
204,4830.390790747499,2057.9027602556657,1448.929482570825,10906.511355222628,0.0,0.0,0.0,0.0,101.13,98.96,90.49,96.61,115.26,Open
205,4697.241449027235,1900.971162434955,1199.2157935161345,10363.408668447575,0.0,0.0,0.0,0.0,101.13,98.96,90.49,96.61,115.26,Open
206,4695.430957726355,1898.3113048447735,1140.4083538542216,9862.260206015137,0.0,0.0,0.0,0.0,101.13,98.96,90.49,96.61,115.26,Open
207,4872.233256367834,2110.9658015925647,1358.2708070600995,10242.195158266444,0.0,0.0,0.0,0.0,101.13,98.96,90.49,96.61,115.26,Open
208,4940.830760101171,2202.4961951370474,1539.5658063370952,10894.553171939036,0.0,0.0,0.0,0.0,101.13,98.96,90.49,96.61,115.26,Open
209,4838.057439095669,2079.0028070214757,1455.612654162962,10905.036140088576,0.0,0.0,0.0,0.0,101.13,98.96,90.49,96.61,115.26,Open
210,4710.69719918933,1927.1450551921196,1208.8717471208272,10362.179322502532,0.0,0.0,0.0,0.0,101.13,98.96,90.49,96.61,115.26,Open
211,4704.21519329729,1919.321944632762,1154.0652697164142,9863.3777932379,0.0,0.0,0.0,0.0,101.13,98.96,90.49,96.61,115.26,Open
212,4863.985462663825,2117.000772595498,1356.1026878479347,10245.167940279,0.0,0.0,0.0,0.0,101.13,98.96,90.49,96.61,115.26,Open
213,4926.726809349872,2202.2279742035835,1537.800018525126,10895.894276606356,0.0,0.0,0.0,0.0,101.13,98.96,90.49,96.61,115.26,Open
214,4823.126473799524,2082.0426442673975,1455.3891367184087,10903.985608099176,0.0,0.0,0.0,0.0,101.13,98.96,90.49,96.61,115.26,Open
215,4700.996542095726,1932.442418628027,1208.424712231721,10359.519464912351,0.0,0.0,0.0,0.0,99.97,99.34,91.45,97.65,116.48,Open
216,4708.752597421718,1933.4035436396057,1157.3509761513444,9862.23785427068,0.0,0.0,0.0,0.0,99.97,99.34,91.45,97.65,116.48,Open
217,4857.548160260697,2119.8170923968664,1353.1522575798342,10245.056181556723,0.0,0.0,0.0,0.0,99.97,99.34,91.45,97.65,116.48,Open
218,4909.314800419188,2193.1308142102735,1529.8427974990366,10896.788346384566,0.0,0.0,0.0,0.0,99.97,99.34,91.45,97.65,116.48,Open
219,4830.122569814035,2099.3652462202604,1458.3395669865092,10906.332541266984,0.0,0.0,0.0,0.0,99.97,99.34,91.45,97.65,116.48,Open
220,4727.371600552989,1973.8825528481664,1225.4120380177544,10358.647746878594,0.0,0.0,0.0,0.0,99.97,99.34,91.45,97.65,116.48,Open
221,4715.055789358114,1960.7397271084465,1166.6940053336627,9862.014336826129,0.0,0.0,0.0,0.0,99.97,99.34,91.45,97.65,116.48,Open
222,4862.1526196184905,2142.437057785637,1360.7294989501834,10245.883196101571,0.0,0.0,0.0,0.0,99.97,99.34,91.45,97.65,116.48,Open
223,4947.446876459941,2246.305614269449,1544.483190117263,10898.375320240892,0.0,0.0,0.0,0.0,99.97,99.34,91.45,97.65,116.48,Open
224,4868.053480154691,2148.4273252996595,1478.657302696383,10903.6726836768,0.0,0.0,0.0,0.0,99.97,99.34,91.45,97.65,116.48,Open
225,4738.860397203016,1996.189593814563,1239.0242503910365,10358.0442497783,0.0,0.0,0.0,0.0,99.97,99.34,91.45,97.65,116.48,Open
226,4732.020763399692,1991.24985828994,1187.8834590772938,9863.355441493446,0.0,0.0,0.0,0.0,99.97,99.34,91.45,97.65,116.48,Open
227,4886.985407708336,2179.764471026,1385.6293422733954,10248.74421939185,0.0,0.0,0.0,0.0,99.97,99.34,91.45,97.65,116.48,Open
228,4954.97941434138,2265.148134845273,1559.905893791425,10898.509430707623,0.0,0.0,0.0,0.0,99.97,99.34,91.45,97.65,116.48,Open
229,4864.4995527862975,2157.2339126150505,1483.507631243185,10902.800965643046,0.0,0.0,0.0,0.0,99.97,99.34,91.45,97.65,116.48,Open
230,4739.754466981229,2012.506367266937,1243.584006259919,10357.53015965583,0.0,0.0,0.0,0.0,99.97,99.34,91.45,97.65,116.48,Open
231,4736.200539612834,2008.6618672206248,1196.6676946482296,9862.684889159786,0.0,0.0,0.0,0.0,99.97,99.34,91.45,97.65,116.48,Open
232,4877.798840737205,2190.0909769643517,1386.7469294961609,10249.191254280957,0.0,0.0,0.0,0.0,99.97,99.34,91.45,97.65,116.48,Open
233,4960.1203155661005,2287.254010111572,1568.8242398290922,10900.811660386522,0.0,0.0,0.0,0.0,99.97,99.34,91.45,97.65,116.48,Open
234,4854.7541922037835,2164.0958981628296,1480.7583666751823,10903.136241809874,0.0,0.0,0.0,0.0,99.97,99.34,91.45,97.65,116.48,Open
235,4736.088780890558,2021.000030159954,1243.7404684711062,10355.920834055049,0.0,0.0,0.0,0.0,99.97,99.34,91.45,97.65,116.48,Open
236,4742.682545504874,2021.3129545823283,1202.6803139067072,9862.28255775959,0.0,0.0,0.0,0.0,99.97,99.34,91.45,97.65,116.48,Open
237,4890.069948443169,2208.1958899731508,1395.7323307671943,10251.873463615591,0.0,0.0,0.0,0.0,99.97,99.34,91.45,97.65,116.48,Open
238,4950.374954983587,2286.2928850999933,1562.4539926593295,10901.191640042263,0.0,0.0,0.0,0.0,99.97,99.34,91.45,97.65,116.48,Open
239,4839.57735771863,2158.329148093361,1475.3268927725426,10903.20329704324,0.0,0.0,0.0,0.0,99.97,99.34,91.45,97.65,116.48,Open
240,4723.728266206774,2016.954364413543,1238.7336777131177,10353.730363098426,0.0,0.0,0.0,0.0,99.97,99.34,91.45,97.65,116.48,Open
241,4731.819597699595,2022.519948782915,1195.1477760252687,9861.76846763712,0.0,0.0,0.0,0.0,100.37,99.63,92.46,97.64,116.04,Open
242,4890.137003676535,2217.0024772885417,1395.9781999562026,10253.46043747192,0.0,0.0,0.0,0.0,100.37,99.63,92.46,97.64,116.04,Open
243,4947.64804216004,2295.1888793932058,1561.1799432253772,10902.01865458711,0.0,0.0,0.0,0.0,100.37,99.63,92.46,97.64,116.04,Open
244,4834.637622194007,2168.163915653696,1464.061613567068,10899.11292780792,0.0,0.0,0.0,0.0,100.37,99.63,92.46,97.64,116.04,Open
245,4709.512556733198,2018.0719516363088,1221.81340716045,10349.639993863106,0.0,0.0,0.0,0.0,100.37,99.63,92.46,97.64,116.04,Open
246,4713.066484101592,2020.0612568928311,1181.714377607629,9862.059040315038,0.0,0.0,0.0,0.0,100.37,99.63,92.46,97.64,116.04,Open
247,4866.48885804282,2208.0394277619635,1379.482612548186,10256.164998551012,0.0,0.0,0.0,0.0,100.37,99.63,92.46,97.64,116.04,Open
248,4895.099090945612,2260.3872132762926,1532.3238411335756,10901.236343531173,0.0,0.0,0.0,0.0,100.37,99.63,92.46,97.64,116.04,Open
249,4771.449240618854,2122.767522664967,1437.0830580095123,10899.805831886031,0.0,0.0,0.0,0.0,100.37,99.63,92.46,97.64,116.04,Open
250,4698.40373973891,2018.2060621030407,1213.252689034067,10348.432999662518,0.0,0.0,0.0,0.0,100.37,99.63,92.46,97.64,116.04,Open
251,4695.520364704176,2014.383913801183,1162.1566012092353,9859.890921102871,0.0,0.0,0.0,0.0,100.37,99.63,92.46,97.64,116.04,Open
252,4838.459770495864,2195.343636911349,1355.722708192195,10254.108638061123,0.0,0.0,0.0,0.0,100.37,99.63,92.46,97.64,116.04,Open
253,4913.606335354607,2288.505707801069,1536.347155135531,10901.146936553352,0.0,0.0,0.0,0.0,100.37,99.63,92.46,97.64,116.04,Open
254,4810.4977381822755,2168.6333022872573,1454.472715195741,10896.25190451764,0.0,0.0,0.0,0.0,100.37,99.63,92.46,97.64,116.04,Open
255,4676.476678428255,2010.673524221602,1205.0943023078803,10345.52727288333,0.0,0.0,0.0,0.0,100.37,99.63,92.46,97.64,116.04,Open
256,4659.712870086774,1992.68036993508,1137.1226474192915,9859.041554813572,0.0,0.0,0.0,0.0,100.37,99.63,92.46,97.64,116.04,Open
257,4797.444319420376,2168.2980261204275,1321.457483942209,10255.829722384182,0.0,0.0,0.0,0.0,99.87,99.16,91.64,97.82,117.49,Open
258,4884.370253607065,2271.7866029484994,1519.896271216425,10903.471517976704,0.0,0.0,0.0,0.0,99.87,99.16,91.64,97.82,117.49,Open
259,4765.078993449091,2136.6256042272576,1426.3542206709649,10895.53664869507,0.0,0.0,0.0,0.0,99.87,99.16,91.64,97.82,117.49,Open
260,4629.91799472785,1978.1070325502196,1170.9184850357158,10342.554490870774,0.0,0.0,0.0,0.0,99.87,99.16,91.64,97.82,117.49,Open
261,4651.643890338408,1996.0778350922867,1130.5065310605207,9859.75681063614,0.0,0.0,0.0,0.0,99.87,99.16,91.64,97.82,117.49,Open
262,4795.924400797415,2174.958845968109,1324.6314316548624,10259.60716719713,0.0,0.0,0.0,0.0,99.87,99.16,91.64,97.82,117.49,Open
263,4830.591956447596,2231.4640559511254,1491.8224801805593,10902.35393075394,0.0,0.0,0.0,0.0,99.87,99.16,91.64,97.82,117.49,Open
264,4725.471702274287,2106.8530806127883,1401.320266881021,10894.553171939036,0.0,0.0,0.0,0.0,99.87,99.16,91.64,97.82,117.49,Open
265,4608.885003195405,1966.193552755541,1153.0817929603809,10340.229909447422,0.0,0.0,0.0,0.0,99.87,99.16,91.64,97.82,117.49,Open
266,4609.041465406593,1965.0759655327756,1093.335580031345,9856.33699373448,0.0,0.0,0.0,0.0,99.87,99.16,91.64,97.82,117.49,Open
267,4745.3424030950555,2138.9725373950646,1284.2194776796673,10256.79084739576,0.0,0.0,0.0,0.0,99.87,99.16,91.64,97.82,117.49,Open
268,4819.237270264301,2230.994669317564,1482.077119598045,10901.258695275628,0.0,0.0,0.0,0.0,99.87,99.16,91.64,97.82,117.49,Open
269,4703.321123519078,2100.1475572761965,1383.5506300390518,10892.496811449148,0.0,0.0,0.0,0.0,99.87,99.16,91.64,97.82,117.49,Open
270,4584.834526161495,1956.939930551044,1138.1731794086909,10338.017086746346,0.0,0.0,0.0,0.0,99.87,99.16,91.64,97.82,117.49,Open
271,4590.780090186607,1962.617273642692,1083.9701991045713,9857.365173979422,0.0,0.0,0.0,0.0,99.87,99.16,91.64,97.82,117.49,Open
272,4745.677679261885,2151.6906799901344,1290.0979864714132,10260.344774764157,0.0,0.0,0.0,0.0,99.87,99.16,91.64,97.82,117.49,Open
273,4793.979799029804,2220.6234598903015,1465.8497531234923,10900.521087708605,0.0,0.0,0.0,0.0,100.38,99.79,92.12,99.01,120.01,Open
274,4674.956759805294,2080.2992081998837,1368.50790602063,10889.255808503129,0.0,0.0,0.0,0.0,100.38,99.79,92.12,99.01,120.01,Open
275,4574.150392311859,1953.743631093935,1132.27231887249,10336.407761145563,0.0,0.0,0.0,0.0,100.38,99.79,92.12,99.01,120.01,Open
276,4571.781107399596,1950.256758958907,1065.015919806471,9856.359345478932,0.0,0.0,0.0,0.0,100.38,99.79,92.12,99.01,120.01,Open
277,4722.2754028171785,2135.6644792156794,1268.2156286496677,10263.786943410272,0.0,0.0,0.0,0.0,100.38,99.79,92.12,99.01,120.01,Open
278,4776.076051721103,2210.9004510522427,1451.4328779498194,10905.259657533128,0.0,0.0,0.0,0.0,100.38,99.79,92.12,99.01,120.01,Open
279,4658.63998635292,2075.158306975163,1352.7275744351834,10888.495849191648,0.0,0.0,0.0,0.0,100.38,99.79,92.12,99.01,120.01,Open
280,4539.974575039694,1931.0566104717984,1105.5843359928533,10330.41749363154,0.0,0.0,0.0,0.0,100.38,99.79,92.12,99.01,120.01,Open
281,4542.61208088542,1933.8952820176223,1040.2278352055357,9856.13582803438,0.0,0.0,0.0,0.0,100.38,99.79,92.12,99.01,120.01,Open
282,4696.526193204665,2126.6343744557353,1246.5344365280196,10263.541074221264,0.0,0.0,0.0,0.0,100.38,99.79,92.12,99.01,120.01,Open
283,4740.000336170237,2186.5146978515027,1425.0801712370123,10904.25382903264,0.0,0.0,0.0,0.0,100.38,99.79,92.12,99.01,120.01,Open
284,4616.261078865657,2048.4926758399815,1322.2397949981446,10885.657177645824,0.0,0.0,0.0,0.0,100.38,99.79,92.12,99.01,120.01,Open
285,4502.580106565965,1908.1460724051087,1081.9585421035936,10327.198842429978,0.0,0.0,0.0,0.0,100.38,99.79,92.12,99.01,120.01,Open
286,4506.402254867823,1911.3870753511285,1012.824596503329,9854.794723367062,0.0,0.0,0.0,0.0,100.38,99.79,92.12,99.01,120.01,Open
287,4647.218244936257,2091.251562982984,1216.7395611690952,10266.759725422828,0.0,0.0,0.0,0.0,100.38,99.79,92.12,99.01,120.01,Open
288,4713.379408523966,2171.762546511,1412.026752475113,10906.801927900546,0.0,0.0,0.0,0.0,100.38,99.79,92.12,99.01,120.01,Open
289,4598.469090279233,2039.328460613306,1309.87928031436,10887.53472418007,0.0,0.0,0.0,0.0,100.38,99.79,92.12,99.01,120.01,Open
290,4470.93003641725,1885.816679694257,1064.524181428454,10327.154138941069,0.0,0.0,0.0,0.0,100.92,99.4,91.38,98.12,118.44,Open
291,4498.243868141636,1913.8234154967563,1002.6769045206196,9855.308813489535,0.0,0.0,0.0,0.0,100.92,99.4,91.38,98.12,118.44,Open
292,4653.901416528394,2105.288458500917,1216.5160437245422,10266.2232835559,0.0,0.0,0.0,0.0,100.92,99.4,91.38,98.12,118.44,Open
293,4704.796338653128,2178.3339593808605,1404.449511104764,10903.516221465616,0.0,0.0,0.0,0.0,100.92,99.4,91.38,98.12,118.44,Open
294,4593.797575688073,2049.029117706909,1303.0843499999464,10884.897218334345,0.0,0.0,0.0,0.0,100.92,99.4,91.38,98.12,118.44,Open
295,4474.2157428521805,1898.5795257782372,1058.1986377476023,10326.19301392949,0.0,0.0,0.0,0.0,100.92,99.4,91.38,98.12,118.44,Open
296,4468.627806738354,1894.6009152651925,980.8839536766952,9855.174703022803,0.0,0.0,0.0,0.0,100.92,99.4,91.38,98.12,118.44,Open
297,4626.453474337277,2092.0115222944646,1195.3265899809112,10267.676146945494,0.0,0.0,0.0,0.0,100.92,99.4,91.38,98.12,118.44,Open
298,4673.2580272266905,2157.6585957597013,1378.5661910255185,10903.940904610266,0.0,0.0,0.0,0.0,100.92,99.4,91.38,98.12,118.44,Open
299,4562.95216833975,2027.5043877964483,1277.0222159650584,10883.8690380894,0.0,0.0,0.0,0.0,100.92,99.4,91.38,98.12,118.44,Open
300,4426.383009717823,1868.069394596743,1028.3143554108567,10323.667266806038,0.0,0.0,0.0,0.0,100.92,99.4,91.38,98.12,118.44,Open
301,4443.437390737223,1883.8720779266453,961.5496947228544,9853.498322188654,0.0,0.0,0.0,0.0,100.92,99.4,91.38,98.12,118.44,Open
302,4587.986122129693,2068.117507471741,1170.8737815468053,10268.257292301332,0.0,0.0,0.0,0.0,100.92,99.4,91.38,98.12,118.44,Open
303,4637.562291331565,2135.1727408376623,1354.515713991608,10906.06432033352,0.0,0.0,0.0,0.0,100.92,99.4,91.38,98.12,118.44,Open
304,4529.044572001048,2006.5384514973705,1254.2681401095558,10883.980796811677,0.0,0.0,0.0,0.0,100.92,99.4,91.38,98.12,118.44,Open
305,4417.5093671690665,1869.4104992640616,1025.028648975927,10321.789720271794,0.0,0.0,0.0,0.0,100.92,99.4,91.38,98.12,118.44,Open
306,4414.067198522949,1868.6281882081255,940.114371790215,9851.911348332327,0.0,0.0,0.0,0.0,100.92,99.4,91.38,98.12,118.44,Open
307,4563.622720673409,2055.377013132216,1157.6639005737186,10268.480809745886,0.0,0.0,0.0,0.0,100.92,99.4,91.38,98.12,118.44,Open
308,4638.255195409679,2144.6275287422573,1353.5992924689403,10906.44429998926,0.0,0.0,0.0,0.0,100.92,99.4,91.38,98.12,118.44,Open
309,4531.5032638911325,2017.8931376806663,1248.4343348067207,10881.365642710403,0.0,0.0,0.0,0.0,100.92,99.4,91.38,98.12,118.44,Open
310,4405.841756563396,1866.2141998069528,1010.5447185688876,10320.180394671012,0.0,0.0,0.0,0.0,100.92,99.4,91.38,98.12,118.44,Open
311,4405.998218774584,1865.65540619557,926.4127524391118,9850.23496749818,0.0,0.0,0.0,0.0,100.92,99.4,91.38,98.12,118.44,Open
312,4540.242795973158,2041.161303658641,1134.3063276179228,10268.570216723709,0.0,0.0,0.0,0.0,100.92,99.4,91.38,98.12,118.44,Open
313,4618.67506726683,2138.167874594674,1338.1542370503232,10907.338369767473,0.0,0.0,0.0,0.0,100.92,99.4,91.38,98.12,118.44,Open
314,4509.41974036929,2008.706570709535,1236.453799778676,10882.259712488618,0.0,0.0,0.0,0.0,100.33,99.07,91.38,97.28,116.03,Open
315,4375.376328870813,1852.3561182446624,994.9432009390832,10317.85581324766,0.0,0.0,0.0,0.0,100.33,99.07,91.38,97.28,116.03,Open
316,4376.717433538131,1855.775935146324,904.440987639545,9851.509016932132,0.0,0.0,0.0,0.0,100.33,99.07,91.38,97.28,116.03,Open
317,4543.886130319373,2057.4333736221047,1133.74753400654,10270.715984191416,0.0,0.0,0.0,0.0,100.33,99.07,91.38,97.28,116.03,Open
318,4596.345674555979,2126.388505266727,1320.429303697265,10905.72904416669,0.0,0.0,0.0,0.0,100.33,99.07,91.38,97.28,116.03,Open
319,4471.488830028633,1983.806727386323,1209.1176163098355,10877.834067086467,0.0,0.0,0.0,0.0,100.33,99.07,91.38,97.28,116.03,Open
320,4359.216017629626,1845.3600222301511,982.269761832924,10314.950086468469,0.0,0.0,0.0,0.0,100.33,99.07,91.38,97.28,116.03,Open
321,4364.714546765631,1853.004318833866,899.3894933926456,9850.167912264817,0.0,0.0,0.0,0.0,100.33,99.07,91.38,97.28,116.03,Open
322,4508.74918803563,2034.2322628774955,1114.7485512195292,10273.219379570412,0.0,0.0,0.0,0.0,100.33,99.07,91.38,97.28,116.03,Open
323,4581.14648832637,2120.7335139195343,1309.16402449179,10908.63477094588,0.0,0.0,0.0,0.0,100.33,99.07,91.38,97.28,116.03,Open
324,4478.686091743242,2000.4364252610717,1211.4645494776428,10879.264578731609,0.0,0.0,0.0,0.0,100.33,99.07,91.38,97.28,116.03,Open
325,4355.14800013876,1851.1714757885309,983.2532385889576,10313.1842986565,0.0,0.0,0.0,0.0,100.33,99.07,91.38,97.28,116.03,Open
326,4358.299596106958,1851.46204846645,893.6897985565423,9850.592595409466,0.0,0.0,0.0,0.0,100.33,99.07,91.38,97.28,116.03,Open
327,4501.395464109834,2033.4946553104703,1106.120777859781,10275.052222615746,0.0,0.0,0.0,0.0,100.33,99.07,91.38,97.28,116.03,Open
328,4556.403107214344,2105.7131416455677,1291.0814632274466,10908.366550012415,0.0,0.0,0.0,0.0,100.33,99.07,91.38,97.28,116.03,Open
329,4451.819294907963,1984.4772797199823,1190.7668341120284,10877.208218241718,0.0,0.0,0.0,0.0,100.33,99.07,91.38,97.28,116.03,Open
330,4338.272433075003,1845.6505949080704,966.4447267585668,10311.105586422156,0.0,0.0,0.0,0.0,101.04,99.65,91.05,96.63,114.1,Open
331,4344.150941866749,1849.6739089100256,880.6810832835536,9848.625641897395,0.0,0.0,0.0,0.0,101.04,99.65,91.05,96.63,114.1,Open
332,4511.65491481482,2050.3478706297724,1112.4239697961773,10275.83453367168,0.0,0.0,0.0,0.0,101.04,99.65,91.05,96.63,114.1,Open
333,4552.245682745657,2111.748112648501,1287.3710736478656,10908.075977334498,0.0,0.0,0.0,0.0,101.04,99.65,91.05,96.63,114.1,Open
334,4440.710477913675,1981.8844773631663,1183.7260346086068,10877.610549641911,0.0,0.0,0.0,0.0,101.04,99.65,91.05,96.63,114.1,Open
335,4315.85363338633,1831.8148650902351,951.8713893737066,10308.915115465536,0.0,0.0,0.0,0.0,101.04,99.65,91.05,96.63,114.1,Open
336,4325.219014313104,1837.4028012040617,868.4546790665006,9850.011450053627,0.0,0.0,0.0,0.0,101.04,99.65,91.05,96.63,114.1,Open
337,4476.36151031989,2029.583100030792,1096.7330451885516,10278.740260450872,0.0,0.0,0.0,0.0,101.04,99.65,91.05,96.63,114.1,Open
338,4544.020240786104,2112.776292893445,1287.326370158955,10909.931172124288,0.0,0.0,0.0,0.0,101.04,99.65,91.05,96.63,114.1,Open
339,4444.443219237712,1990.914582123111,1184.7095113646403,10875.285968218564,0.0,0.0,0.0,0.0,101.04,99.65,91.05,96.63,114.1,Open
340,4321.955659622629,1839.7273826274136,956.5876074537764,10308.378673598609,0.0,0.0,0.0,0.0,101.04,99.65,91.05,96.63,114.1,Open
341,4333.645621972754,1853.1607810450532,872.0086064348944,9850.503188431643,0.0,0.0,0.0,0.0,101.04,99.65,91.05,96.63,114.1,Open
342,4498.646199541831,2055.8911032546885,1112.334562818356,10279.65668197354,0.0,0.0,0.0,0.0,101.04,99.65,91.05,96.63,114.1,Open
343,4547.082429776482,2121.3593627642827,1296.4905853856308,10908.500660479149,0.0,0.0,0.0,0.0,101.04,99.65,91.05,96.63,114.1,Open
344,4438.140027301315,1992.0098176014208,1186.1176712653246,10872.380241439372,0.0,0.0,0.0,0.0,101.04,99.65,91.05,96.63,114.1,Open
345,4326.023677113495,1853.0937258116871,967.115279092226,10305.383539841598,0.0,0.0,0.0,0.0,101.04,99.65,91.05,96.63,114.1,Open
346,4336.081962118383,1865.7001096844808,885.665522297087,9848.08920003047,0.0,0.0,0.0,0.0,101.04,99.65,91.05,96.63,114.1,Open
347,4502.490699588144,2066.2399609374957,1117.430760554166,10281.355414552145,0.0,0.0,0.0,0.0,101.04,99.65,91.05,96.63,114.1,Open
348,4554.883188591384,2135.0609821153857,1302.614963366385,10910.646427946858,0.0,0.0,0.0,0.0,101.37,99.37,91.28,97.35,116.15,Open
349,4442.029230836539,2003.3421520402617,1192.979656813104,10873.430773428772,0.0,0.0,0.0,0.0,101.37,99.37,91.28,97.35,116.15,Open
350,4323.81085441242,1859.687490426003,965.9976918694606,10305.897629964067,0.0,0.0,0.0,0.0,101.37,99.37,91.28,97.35,116.15,Open
351,4357.629043773299,1896.23259261043,902.6528480831204,9848.469179686212,0.0,0.0,0.0,0.0,101.37,99.37,91.28,97.35,116.15,Open
352,4514.962972994205,2090.4021966936825,1131.1770833941798,10280.55075175175,0.0,0.0,0.0,0.0,101.37,99.37,91.28,97.35,116.15,Open
353,4548.132961765881,2140.514807762481,1302.033818010547,10911.58520121398,0.0,0.0,0.0,0.0,101.37,99.37,91.28,97.35,116.15,Open
354,4451.059335596483,2022.6540592496467,1202.590906928886,10873.475476917682,0.0,0.0,0.0,0.0,101.37,99.37,91.28,97.35,116.15,Open
355,4348.017793657517,1892.164575119564,984.0579013893488,10304.198897385466,0.0,0.0,0.0,0.0,101.37,99.37,91.28,97.35,116.15,Open
356,4349.381250069291,1896.009075165877,900.5741358487769,9849.385601208878,0.0,0.0,0.0,0.0,101.37,99.37,91.28,97.35,116.15,Open
357,4501.104891431915,2081.796775078389,1121.6775920006744,10285.691652976471,0.0,0.0,0.0,0.0,101.37,99.37,91.28,97.35,116.15,Open
358,4535.303060448535,2130.925909391154,1289.4050823932985,10911.652256447347,0.0,0.0,0.0,0.0,101.37,99.37,91.28,97.35,116.15,Open
359,4435.614280177865,2012.3946085446607,1185.648284631763,10870.457991416217,0.0,0.0,0.0,0.0,101.37,99.37,91.28,97.35,116.15,Open
360,4328.460017259124,1878.261790068363,966.400023269656,10300.868487461628,0.0,0.0,0.0,0.0,101.37,99.37,91.28,97.35,116.15,Open
361,4343.055706388439,1896.1878891215192,888.3253798872686,9847.575109908,0.0,0.0,0.0,0.0,101.37,99.37,91.28,97.35,116.15,Open
362,4492.678283772264,2083.473155912537,1111.7981209514287,10287.233923343889,0.0,0.0,0.0,0.0,101.37,99.37,91.28,97.35,116.15,Open
363,4520.953240508227,2127.9754791230534,1277.133974687335,10912.143994825365,0.0,0.0,0.0,0.0,101.37,99.37,91.28,97.35,116.15,Open
364,4424.2595939945695,2011.2770213218955,1176.7075868496404,10869.452162915726,0.0,0.0,0.0,0.0,101.37,99.37,91.28,97.35,116.15,Open
365,4315.0266188414835,1873.0314818658212,958.5098574769328,10299.102699649657,0.0,0.0,0.0,0.0,101.37,99.37,91.28,97.35,116.15,Open
366,4339.255909831037,1899.3841885786285,885.2631908968915,9849.251490742146,0.0,0.0,0.0,0.0,101.37,99.37,91.28,97.35,116.15,Open
367,4490.890144215839,2087.362359447761,1115.0391238974482,10289.402042556054,0.0,0.0,0.0,0.0,101.37,99.37,91.28,97.35,116.15,Open
368,4543.863778574918,2158.66442426019,1296.8258615524603,10916.100253593951,0.0,0.0,0.0,0.0,101.37,99.37,91.28,97.35,116.15,Open
369,4448.980623362139,2042.413001348138,1195.8406801033832,10870.972081538688,0.0,0.0,0.0,0.0,101.37,99.37,91.28,97.35,116.15,Open
370,4335.791389440464,1901.32879034624,971.4068140276448,10296.08521414819,0.0,0.0,0.0,0.0,101.37,99.37,91.28,97.35,116.15,Open
371,4347.593110512867,1912.035275940332,892.3486938892239,9847.038668041072,0.0,0.0,0.0,0.0,101.37,99.37,91.28,97.35,116.15,Open
372,4492.36535934989,2094.0455310398975,1113.139225618747,10287.166868110522,0.0,0.0,0.0,0.0,100.52,98.44,91.04,97.11,118.06,Open
373,4525.535348121565,2144.1134386197855,1280.486736355631,10912.814547159023,0.0,0.0,0.0,0.0,100.52,98.44,91.04,97.11,118.06,Open
374,4419.811596847963,2025.224509862007,1169.398566412755,10868.82631407098,0.0,0.0,0.0,0.0,100.52,98.44,91.04,97.11,118.06,Open
375,4329.510549248523,1903.228688624941,964.9695116245164,10295.74993798136,0.0,0.0,0.0,0.0,100.52,98.44,91.04,97.11,118.06,Open
376,4336.931328407684,1912.9516974629996,883.7432722739306,9847.95508956374,0.0,0.0,0.0,0.0,100.52,98.44,91.04,97.11,118.06,Open
377,4480.4965830441215,2095.4313391961264,1105.9419639041382,10287.569199510715,0.0,0.0,0.0,0.0,100.52,98.44,91.04,97.11,118.06,Open
378,4517.5334236065655,2146.7732962099667,1272.9318467297371,10912.747491925657,0.0,0.0,0.0,0.0,100.52,98.44,91.04,97.11,118.06,Open
379,4405.260611207558,2012.3052015668395,1156.7921825399617,10868.379279181872,0.0,0.0,0.0,0.0,100.52,98.44,91.04,97.11,118.06,Open
380,4311.0927118173495,1894.4444530540056,948.0492410718492,10294.855868203147,0.0,0.0,0.0,0.0,100.52,98.44,91.04,97.11,118.06,Open
381,4321.28510728897,1908.257831127385,869.0358244223386,9849.00562155314,0.0,0.0,0.0,0.0,100.52,98.44,91.04,97.11,118.06,Open
382,4460.871751412363,2084.2778187129284,1091.6368474527417,10288.910304178036,0.0,0.0,0.0,0.0,100.52,98.44,91.04,97.11,118.06,Open
383,4489.437280826245,2130.545929735414,1252.904683697782,10912.278105292096,0.0,0.0,0.0,0.0,100.52,98.44,91.04,97.11,118.06,Open
384,4396.834003547908,2014.5403760123704,1152.5453510934533,10865.38414542486,0.0,0.0,0.0,0.0,100.52,98.44,91.04,97.11,118.06,Open
385,4288.204525495115,1881.5474965032931,936.8957205886508,10292.397176313065,0.0,0.0,0.0,0.0,100.52,98.44,91.04,97.11,118.06,Open
386,4303.09078730235,1896.947848433,859.2234086064587,9848.200958752746,0.0,0.0,0.0,0.0,100.52,98.44,91.04,97.11,118.06,Open
387,4455.730850187641,2088.0999670147858,1091.8380131528395,10292.486583290884,0.0,0.0,0.0,0.0,100.52,98.44,91.04,97.11,118.06,Open
388,4489.683150015253,2141.8782641742546,1257.5761982889412,10915.608515215936,0.0,0.0,0.0,0.0,100.52,98.44,91.04,97.11,118.06,Open
389,4384.540544097489,2016.9096609246328,1148.2985196469451,10866.702898347725,0.0,0.0,0.0,0.0,100.79,99.19,91.48,98.03,117.55,Open
390,4279.9790835355625,1883.6038569931816,938.28152874488,10292.777155968804,0.0,0.0,0.0,0.0,100.79,99.19,91.48,98.03,117.55,Open
391,4318.334677020869,1922.942927234522,874.9143332140843,9848.268013986111,0.0,0.0,0.0,0.0,100.79,99.19,91.48,98.03,117.55,Open
392,4448.041850095016,2092.704426372579,1090.7427776745294,10290.787850712282,0.0,0.0,0.0,0.0,100.79,99.19,91.48,98.03,117.55,Open
393,4494.108795417404,2151.37775556776,1258.716137256162,10915.20618381574,0.0,0.0,0.0,0.0,100.79,99.19,91.48,98.03,117.55,Open
394,4397.191631459193,2030.007783175443,1156.0992784618472,10864.691241346747,0.0,0.0,0.0,0.0,100.79,99.19,91.48,98.03,117.55,Open
395,4277.945074790129,1889.3035518292847,934.0570490428267,10288.485621033386,0.0,0.0,0.0,0.0,100.79,99.19,91.48,98.03,117.55,Open
396,4287.288103972448,1900.814700223768,849.0533648792941,9845.13876976237,0.0,0.0,0.0,0.0,100.79,99.19,91.48,98.03,117.55,Open
397,4448.600643706399,2098.962914820065,1085.8700973832724,10291.883086190592,0.0,0.0,0.0,0.0,100.79,99.19,91.48,98.03,117.55,Open
398,4480.4965830441215,2144.694583975623,1247.8308377064277,10915.49675649366,0.0,0.0,0.0,0.0,100.79,99.19,91.48,98.03,117.55,Open
399,4367.821439244919,2014.585079501281,1134.4180863401994,10864.780648324568,0.0,0.0,0.0,0.0,100.79,99.19,91.48,98.03,117.55,Open
400,4261.427135637658,1880.5193162583491,921.405961681123,10289.424394300508,0.0,0.0,0.0,0.0,100.79,99.19,91.48,98.03,117.55,Open
401,4287.958656306107,1905.8214909817568,848.0922398677159,9849.497359931154,0.0,0.0,0.0,0.0,100.79,99.19,91.48,98.03,117.55,Open
402,4437.335364500924,2093.5314409174252,1074.493059455521,10298.14157463808,0.0,0.0,0.0,0.0,100.79,99.19,91.48,98.03,117.55,Open
403,4469.588931749932,2143.956976408598,1240.7006312251845,10917.128433838896,0.0,0.0,0.0,0.0,100.79,99.19,91.48,98.03,117.55,Open
404,4366.3238723664135,2020.552995270848,1135.8709497297943,10862.701936090223,0.0,0.0,0.0,0.0,100.79,99.19,91.48,98.03,117.55,Open
405,4265.025766494962,1894.6009152651925,928.4914646734554,10286.295150076763,0.0,0.0,0.0,0.0,99.84,98.88,90.89,97.99,119.59,Open
406,4274.301740443914,1908.5931072942149,845.991175888917,9847.172778507804,0.0,0.0,0.0,0.0,99.84,98.88,90.89,97.99,119.59,Open
407,4407.1828612307145,2078.9134000436547,1067.1840390186358,10298.588609527184,0.0,0.0,0.0,0.0,99.84,98.88,90.89,97.99,119.59,Open
408,4443.884425626329,2128.064886100875,1233.5927764883968,10915.273239049106,0.0,0.0,0.0,0.0,99.84,98.88,90.89,97.99,119.59,Open
409,4365.72037526612,2032.9805651879983,1139.55898756492,10859.10330523292,0.0,0.0,0.0,0.0,99.84,98.88,90.89,97.99,119.59,Open
410,4243.74690577351,1888.3424268177064,917.6732203570868,10283.545885508764,0.0,0.0,0.0,0.0,99.84,98.88,90.89,97.99,119.59,Open
411,4245.736211030032,1892.3880925641172,828.9814983584283,9847.195130252258,0.0,0.0,0.0,0.0,99.84,98.88,90.89,97.99,119.59,Open
412,4421.420922448745,2103.410911966671,1081.086824069837,10301.024949672812,0.0,0.0,0.0,0.0,99.84,98.88,90.89,97.99,119.59,Open
413,4461.877579912851,2162.263055117495,1246.713250483662,10917.329599538994,0.0,0.0,0.0,0.0,99.84,98.88,90.89,97.99,119.59,Open
414,4350.968223925617,2030.16424538663,1128.494874059543,10859.39387791084,0.0,0.0,0.0,0.0,99.84,98.88,90.89,97.99,119.59,Open
415,4243.2328156510375,1898.0654356557652,915.8403773117516,10281.26600757432,0.0,0.0,0.0,0.0,99.84,98.88,90.89,97.99,119.59,Open
416,4265.159876961694,1921.6241743116589,844.3371467992243,9847.597461652456,0.0,0.0,0.0,0.0,99.84,98.88,90.89,97.99,119.59,Open
417,4420.079817781427,2111.122263803752,1082.7408531595297,10303.617752029628,0.0,0.0,0.0,0.0,99.84,98.88,90.89,97.99,119.59,Open
418,4461.050565368005,2166.6216452862795,1247.897892939793,10919.855346662443,0.0,0.0,0.0,0.0,99.84,98.88,90.89,97.99,119.59,Open
419,4347.973090168606,2032.913509954633,1134.976879951582,10859.349174421928,0.0,0.0,0.0,0.0,99.84,98.88,90.89,97.99,119.59,Open
420,4228.88299571073,1894.75737747638,913.6052028662208,10280.573103496206,0.0,0.0,0.0,0.0,99.84,98.88,90.89,97.99,119.59,Open
421,4250.608891321289,1920.0819039442424,841.2302543199366,9847.262185485624,0.0,0.0,0.0,0.0,99.84,98.88,90.89,97.99,119.59,Open
422,4407.4734339086335,2109.244717269506,1074.224838522057,10303.818917729726,0.0,0.0,0.0,0.0,100.79,99.46,90.86,97.94,117.95,Open
423,4434.4966929551,2151.154238123207,1230.9329188982151,10919.11773909542,0.0,0.0,0.0,0.0,100.79,99.46,90.86,97.94,117.95,Open
424,4338.652412730743,2034.969870444521,1129.6795165156743,10858.85743604391,0.0,0.0,0.0,0.0,100.79,99.46,90.86,97.94,117.95,Open
425,4219.763483972965,1898.5124705448711,910.4536068980226,10277.309748805732,0.0,0.0,0.0,0.0,100.79,99.46,90.86,97.94,117.95,Open
426,4252.17351343316,1930.9225000050665,843.7112979544756,9848.022144797103,0.0,0.0,0.0,0.0,100.79,99.46,90.86,97.94,117.95,Open
427,4408.389855431301,2119.258298785484,1080.6174374362752,10307.149327653568,0.0,0.0,0.0,0.0,100.79,99.46,90.86,97.94,117.95,Open
428,4431.032172564527,2156.384546325749,1232.0952096098913,10920.01180887363,0.0,0.0,0.0,0.0,100.79,99.46,90.86,97.94,117.95,Open
429,4320.323982277391,2028.1749401301076,1116.916670431694,10855.77289530908,0.0,0.0,0.0,0.0,100.79,99.46,90.86,97.94,117.95,Open
430,4235.633222536233,1920.3501248777063,919.5284151468773,10277.667376717018,0.0,0.0,0.0,0.0,100.79,99.46,90.86,97.94,117.95,Open
431,4250.497132599012,1940.712564076491,846.5276177558444,9848.04449654156,0.0,0.0,0.0,0.0,100.79,99.46,90.86,97.94,117.95,Open
432,4397.973942515128,2123.1027988317965,1080.59508569182,10307.261086375844,0.0,0.0,0.0,0.0,100.79,99.46,90.86,97.94,117.95,Open
433,4431.4792074536335,2169.6614825322013,1240.5441690139974,10919.676532706802,0.0,0.0,0.0,0.0,100.79,99.46,90.86,97.94,117.95,Open
434,4318.558194465422,2038.613204790736,1121.3646675783,10853.425962141271,0.0,0.0,0.0,0.0,100.79,99.46,90.86,97.94,117.95,Open
435,4216.83540544932,1908.5707555497595,911.3029731873244,10271.766516180816,0.0,0.0,0.0,0.0,100.79,99.46,90.86,97.94,117.95,Open
436,4251.435905866135,1940.332584420751,845.6111962331768,9847.262185485624,0.0,0.0,0.0,0.0,100.79,99.46,90.86,97.94,117.95,Open
437,4393.660055835254,2119.750037163501,1074.4260042221551,10309.876240477117,0.0,0.0,0.0,0.0,100.79,99.46,90.86,97.94,117.95,Open
438,4425.555995172977,2167.918046464687,1232.9892793881036,10921.039989118575,0.0,0.0,0.0,0.0,100.79,99.46,90.86,97.94,117.95,Open
439,4314.780749652476,2037.8308937348,1118.101312887825,10853.984755752654,0.0,0.0,0.0,0.0,100.79,99.46,90.86,97.94,117.95,Open
440,4208.028818133929,1906.782615993335,908.0396184968496,10272.258254558832,0.0,0.0,0.0,0.0,100.79,99.46,90.86,97.94,117.95,Open
441,4225.887861953719,1928.4414563705277,830.5237687258445,9847.463351185725,0.0,0.0,0.0,0.0,100.79,99.46,90.86,97.94,117.95,Open
442,4386.261628420547,2120.8229208973553,1070.1568210311916,10308.825708487717,0.0,0.0,0.0,0.0,100.79,99.46,90.86,97.94,117.95,Open
443,4415.1624340012595,2162.7324417510563,1224.8085409174612,10918.938925139775,0.0,0.0,0.0,0.0,100.79,99.46,90.86,97.94,117.95,Open
444,4299.961543078607,2030.521873297915,1108.7135802165965,10852.129560962863,0.0,0.0,0.0,0.0,100.79,99.46,90.86,97.94,117.95,Open
445,4204.430187276625,1909.2860113723293,905.6703335845868,10273.152324337045,0.0,0.0,0.0,0.0,100.79,99.46,90.86,97.94,117.95,Open
446,4235.275594624948,1944.8252850562676,837.8104374182747,9848.580938408488,0.0,0.0,0.0,0.0,100.27,99.57,90.14,97.73,115.19,Open
447,4385.501669109067,2129.5401012349253,1071.7437948875183,10311.70908352245,0.0,0.0,0.0,0.0,100.27,99.57,90.14,97.73,115.19,Open
448,4408.30044845348,2168.186267398151,1222.774532172028,10920.97293388521,0.0,0.0,0.0,0.0,100.27,99.57,90.14,97.73,115.19,Open
449,4310.980953095073,2046.101039183264,1115.7767314644732,10852.9118720188,0.0,0.0,0.0,0.0,100.27,99.57,90.14,97.73,115.19,Open
450,4209.079350123328,1916.036238197832,905.826795795774,10270.51481849132,0.0,0.0,0.0,0.0,100.27,99.57,90.14,97.73,115.19,Open
451,4223.205652619083,1937.359802408195,826.6792686795317,9846.256356985135,0.0,0.0,0.0,0.0,100.27,99.57,90.14,97.73,115.19,Open
452,4367.106183422349,2119.5265197189474,1056.9916435470157,10308.691598020983,0.0,0.0,0.0,0.0,100.27,99.57,90.14,97.73,115.19,Open
453,4397.057520992461,2160.184342883151,1212.9844681006036,10921.218803074218,0.0,0.0,0.0,0.0,100.27,99.57,90.14,97.73,115.19,Open
454,4295.021807553984,2036.936823956588,1103.9079551587051,10852.822465040976,0.0,0.0,0.0,0.0,100.27,99.57,90.14,97.73,115.19,Open
455,4216.12014962675,1933.2694331728735,909.1572057196148,10269.643100457562,0.0,0.0,0.0,0.0,100.27,99.57,90.14,97.73,115.19,Open
456,4259.348423403314,1974.709567393013,853.0990306257047,9849.363249464424,0.0,0.0,0.0,0.0,100.27,99.57,90.14,97.73,115.19,Open
457,4392.341302912391,2148.4496770441147,1078.337559501834,10314.212478901443,0.0,0.0,0.0,0.0,100.27,99.57,90.14,97.73,115.19,Open
458,4405.4170734187455,2179.6974157926343,1221.7910554159946,10920.30238155155,0.0,0.0,0.0,0.0,100.27,99.57,90.14,97.73,115.19,Open
459,4292.987798808551,2046.4363153500935,1104.0197138809815,10848.977964994663,0.0,0.0,0.0,0.0,100.27,99.57,90.14,97.73,115.19,Open
460,4206.799472188887,1929.7602092933903,903.4128073946008,10266.826780656193,0.0,0.0,0.0,0.0,100.27,99.57,90.14,97.73,115.19,Open
461,4224.077370652839,1952.67074736008,826.9251378685401,9848.13390351938,0.0,0.0,0.0,0.0,100.27,99.57,90.14,97.73,115.19,Open
462,4367.843790989375,2132.3340692918387,1059.338576714823,10317.632295803109,0.0,0.0,0.0,0.0,100.27,99.57,90.14,97.73,115.19,Open
463,4376.002177715562,2158.4856103045477,1196.4665289481318,10921.375265285404,0.0,0.0,0.0,0.0,100.56,98.98,90.96,97.25,113.94,Open
464,4277.6321503677555,2036.9591757010433,1086.6747601836637,10847.502749860616,0.0,0.0,0.0,0.0,100.56,98.98,90.96,97.25,113.94,Open
465,4184.44772773358,1917.4667498429717,888.2136211649921,10261.596472453652,0.0,0.0,0.0,0.0,100.56,98.98,90.96,97.25,113.94,Open
466,4227.877167210241,1964.1371922656529,834.6811931945316,9846.926909318794,0.0,0.0,0.0,0.0,100.56,98.98,90.96,97.25,113.94,Open
467,4368.96137821214,2147.153275865707,1069.240399508524,10320.649781304572,0.0,0.0,0.0,0.0,100.56,98.98,90.96,97.25,113.94,Open
468,4384.048805719472,2179.7421192815445,1211.8668808778384,10923.58808798648,0.0,0.0,0.0,0.0,100.56,98.98,90.96,97.25,113.94,Open
469,4254.8557227677975,2037.3615071012389,1080.7738996474625,10845.58049983746,0.0,0.0,0.0,0.0,100.56,98.98,90.96,97.25,113.94,Open
470,4164.889951335186,1934.6775930735585,886.6489990531205,10260.456533486433,0.0,0.0,0.0,0.0,100.56,98.98,90.96,97.25,113.94,Open
471,4214.488472281512,1982.5773814412812,839.5762252302438,9846.703391874242,0.0,0.0,0.0,0.0,100.56,98.98,90.96,97.25,113.94,Open
472,4368.491991578579,2151.5565695234027,1066.4017279627,10319.75571152636,0.0,0.0,0.0,0.0,100.56,98.98,90.96,97.25,113.94,Open
473,4406.601715874876,2191.3873781427596,1208.5588226984528,10923.722198453212,0.0,0.0,0.0,0.0,100.56,98.98,90.96,97.25,113.94,Open
474,4285.7905370939425,2058.2156846780404,1087.5464782174204,10846.34045914894,0.0,0.0,0.0,0.0,100.56,98.98,90.96,97.25,113.94,Open
475,4186.146460312183,1934.230558184452,886.1349089306485,10260.74710616435,0.0,0.0,0.0,0.0,100.56,98.98,90.96,97.25,113.94,Open
476,4210.018123390451,1974.2401807594515,825.5840332012217,9845.541101162566,0.0,0.0,0.0,0.0,100.56,98.98,90.96,97.25,113.94,Open
477,4332.080999860883,2139.3078135618944,1051.82839057784,10321.007409215856,0.0,0.0,0.0,0.0,100.56,98.98,90.96,97.25,113.94,Open
478,4334.070305117405,2138.413743783682,1176.7746420830065,10919.8776984069,0.0,0.0,0.0,0.0,100.56,98.98,90.96,97.25,113.94,Open
479,4208.9005361676855,2022.095265638264,1044.2958526964012,10843.300621903018,0.0,0.0,0.0,0.0,100.56,98.98,90.96,97.25,113.94,Open
480,4110.128177419684,1902.580488035737,845.4100305330791,10256.455571228931,0.0,0.0,0.0,0.0,101.2,99.94,91.96,97.35,113.28,Open
481,4164.666433890633,1933.00121223941,789.1506897390711,9847.217481996711,0.0,0.0,0.0,0.0,101.2,99.94,91.96,97.35,113.28,Open
482,4341.33462206538,2131.954089636098,1042.0606782508703,10325.410702873553,0.0,0.0,0.0,0.0,101.2,99.94,91.96,97.35,113.28,Open
483,4406.132329241315,2209.2017184736396,1219.846453648383,10926.337352554485,0.0,0.0,0.0,0.0,101.2,99.94,91.96,97.35,113.28,Open
484,4290.03736854045,2078.0416820098976,1093.626152709264,10844.775837037068,0.0,0.0,0.0,0.0,101.2,99.94,91.96,97.35,113.28,Open
485,4173.0930415502835,1944.8252850562676,876.4119000925899,10256.656736929028,0.0,0.0,0.0,0.0,101.2,99.94,91.96,97.35,113.28,Open
486,4194.997751116485,1978.8893436061555,813.6258499176324,9848.156255263835,0.0,0.0,0.0,0.0,101.2,99.94,91.96,97.35,113.28,Open
487,4341.893415676763,2151.087182889841,1044.742887585507,10324.85190926217,0.0,0.0,0.0,0.0,101.2,99.94,91.96,97.35,113.28,Open
488,4368.2014189006595,2174.3329971233607,1177.4228426722102,10923.677494964302,0.0,0.0,0.0,0.0,101.2,99.94,91.96,97.35,113.28,Open
489,4235.40970509168,2031.2147773760296,1043.3123759403677,10843.0100492251,0.0,0.0,0.0,0.0,101.2,99.94,91.96,97.35,113.28,Open
490,4122.779264781388,1901.6417147686143,835.1505798280931,10254.510969461318,0.0,0.0,0.0,0.0,101.2,99.94,91.96,97.35,113.28,Open
491,4146.427410415103,1933.6047093397033,764.3849568825909,9845.250528484648,0.0,0.0,0.0,0.0,101.2,99.94,91.96,97.35,113.28,Open
492,4332.729200450087,2151.7130317345895,1037.29975668189,10325.164833684545,0.0,0.0,0.0,0.0,101.2,99.94,91.96,97.35,113.28,Open
493,4375.19751491517,2206.631267861279,1203.2838110070004,10924.280992064596,0.0,0.0,0.0,0.0,101.2,99.94,91.96,97.35,113.28,Open
494,4258.163780947182,2073.1466499741855,1079.0528153244038,10842.674773058268,0.0,0.0,0.0,0.0,101.2,99.94,91.96,97.35,113.28,Open
495,4158.072669276317,1943.8194565557787,866.3983185766124,10253.594547938652,0.0,0.0,0.0,0.0,101.2,99.94,91.96,97.35,113.28,Open
496,4185.900591123175,1975.6036371712253,802.7852538568085,9844.289403473069,0.0,0.0,0.0,0.0,101.2,99.94,91.96,97.35,113.28,Open
497,4327.990630625562,2150.550741022914,1039.624338105242,10321.99088597189,0.0,0.0,0.0,0.0,101.2,99.94,91.96,97.35,113.28,Open
498,4349.560064024933,2188.638113574757,1177.9592845391376,10928.527823511104,0.0,0.0,0.0,0.0,101.2,99.94,91.96,97.35,113.28,Open
499,4242.830484250842,2062.7530888024676,1061.7749168604514,10849.492055117138,0.0,0.0,0.0,0.0,101.2,99.94,91.96,97.35,113.28,Open
500,4144.259291202938,1938.4997413754156,863.7384609864308,10252.096981060144,0.0,0.0,0.0,0.0,101.2,99.94,91.96,97.35,113.28,Open
501,4163.660605390144,1963.1760672540747,788.9048205500628,9832.71119984522,0.0,0.0,0.0,0.0,101.2,99.94,91.96,97.35,113.28,Open
502,4330.538729493467,2158.2620928599945,1038.1938264601024,10317.207612658454,0.0,0.0,0.0,0.0,101.2,99.94,91.96,97.35,113.28,Open
503,4364.871008976818,2205.536032382969,1193.2478777465676,10932.998172402164,0.0,0.0,0.0,0.0,101.2,99.94,91.96,97.35,113.28,Open
504,4243.8810162402415,2068.8774667832217,1071.9002570987054,10858.14218022134,0.0,0.0,0.0,0.0,103.18,100.46,92.73,98.3,118.47,Open
505,4145.980375525996,1950.1897037255412,869.3263971002576,10252.767533393804,0.0,0.0,0.0,0.0,103.18,100.46,92.73,98.3,118.47,Open
506,4182.078442821317,1985.7960326428456,808.4849486929118,9819.814243294508,0.0,0.0,0.0,0.0,103.18,100.46,92.73,98.3,118.47,Open
507,4318.289973531959,2158.217389371084,1042.753582328985,10310.971475955424,0.0,0.0,0.0,0.0,103.18,100.46,92.73,98.3,118.47,Open
508,4347.280186090492,2197.5788113568797,1191.2585724900453,10950.141960399384,0.0,0.0,0.0,0.0,103.18,100.46,92.73,98.3,118.47,Open
509,4233.93448995763,2068.9221702721325,1068.5474954304095,10879.599854898435,0.0,0.0,0.0,0.0,103.18,100.46,92.73,98.3,118.47,Open
510,4127.808407283832,1947.887474046645,858.4858010394337,10256.276757273288,0.0,0.0,0.0,0.0,103.18,100.46,92.73,98.3,118.47,Open
511,4166.342814724781,1988.0535588328312,798.8289950882191,9801.4634610967,0.0,0.0,0.0,0.0,103.18,100.46,92.73,98.3,118.47,Open
512,4320.256927044025,2173.349520367327,1042.9547480290828,10298.074519404712,0.0,0.0,0.0,0.0,103.18,100.46,92.73,98.3,118.47,Open
513,4351.325851836902,2218.902375567243,1197.4723574486206,10961.40723960486,0.0,0.0,0.0,0.0,103.18,100.46,92.73,98.3,118.47,Open
514,4236.750809758998,2086.5576966473695,1065.462954695577,10899.090576063463,0.0,0.0,0.0,0.0,103.18,100.46,92.73,98.3,118.47,Open
515,4116.163148422617,1938.4103343975944,841.9455101425065,10253.728658405384,0.0,0.0,0.0,0.0,103.18,100.46,92.73,98.3,118.47,Open
516,4150.7860005838875,1969.456907446016,772.3868813975909,9772.070917137971,0.0,0.0,0.0,0.0,103.18,100.46,92.73,98.3,118.47,Open
517,4322.581508467378,2174.28829363445,1031.9129862681611,10281.400118041054,0.0,0.0,0.0,0.0,103.18,100.46,92.73,98.3,118.47,Open
518,4369.430764845702,2230.01119256153,1203.1273487958133,10971.30906239856,0.0,0.0,0.0,0.0,103.18,100.46,92.73,98.3,118.47,Open
519,4241.22115865006,2087.407062936671,1074.0460245664149,10913.283933792583,0.0,0.0,0.0,0.0,103.18,100.46,92.73,98.3,118.47,Open
520,4100.8298517262765,1937.3150989192843,845.3206235552578,10251.672297915497,0.0,0.0,0.0,0.0,106.47,101.26,94.24,98.43,116.17,Open
521,4116.3866658671695,1963.3548812097172,765.994282483373,9745.628803447344,0.0,0.0,0.0,0.0,106.47,101.26,94.24,98.43,116.17,Open
522,4278.146240490227,2154.4622963025927,1019.1501401841808,10256.343812506651,0.0,0.0,0.0,0.0,106.47,101.26,94.24,98.43,116.17,Open
523,4333.913842906219,2227.798369860455,1196.779453370506,10988.36344341796,0.0,0.0,0.0,0.0,106.47,101.26,94.24,98.43,116.17,Open
524,4225.55258578689,2103.4556154555817,1080.5503822029093,10955.97576570222,0.0,0.0,0.0,0.0,106.47,101.26,94.24,98.43,116.17,Open
525,4075.035938624852,1933.3364884062396,838.5927484742103,10267.899664390048,0.0,0.0,0.0,0.0,106.47,101.26,94.24,98.43,116.17,Open
526,4095.0854534012624,1954.0118520273984,747.352927607647,9717.577364155934,0.0,0.0,0.0,0.0,106.47,101.26,94.24,98.43,116.17,Open
527,4280.090842257839,2163.604159784813,1013.3833901147116,10234.282640729269,0.0,0.0,0.0,0.0,106.47,101.26,94.24,98.43,116.17,Open
528,4326.537767235967,2227.373686715804,1190.0292265450032,11004.568458148058,0.0,0.0,0.0,0.0,106.47,101.26,94.24,98.43,116.17,Open
529,4214.443768792602,2099.5217084314477,1068.9274750861496,11003.048539525098,0.0,0.0,0.0,0.0,106.47,101.26,94.24,98.43,116.17,Open
530,4056.7298599159553,1931.1460174496196,818.9232133535402,10295.101737392157,0.0,0.0,0.0,0.0,106.47,101.26,94.24,98.43,116.17,Open
531,4062.3401477742377,1934.9011105181112,709.1090928446166,9672.471543845122,0.0,0.0,0.0,0.0,106.47,101.26,94.24,98.43,116.17,Open
532,4254.073411711862,2146.058040387397,977.6205989862204,10169.574340531151,0.0,0.0,0.0,0.0,106.47,101.26,94.24,98.43,116.17,Open
533,4305.929458848173,2211.705113852634,1169.0856419903805,10985.860048038969,0.0,0.0,0.0,0.0,106.47,101.26,94.24,98.43,116.17,Open
534,4203.536117498412,2098.2029555085846,1059.137411014725,11019.23120251074,0.0,0.0,0.0,0.0,106.47,101.26,94.24,98.43,116.17,Open
535,4071.973749634474,1954.2577212164072,823.7064866669758,10307.194031142477,0.0,0.0,0.0,0.0,106.47,101.26,94.24,98.43,116.17,Open
536,4070.766755433888,1953.6542241161137,712.126578346083,9674.86318050184,0.0,0.0,0.0,0.0,106.47,101.26,94.24,98.43,116.17,Open
537,4255.906254757197,2163.4029940847154,984.437881045089,10177.799782490703,0.0,0.0,0.0,0.0,108.52,104.35,96.57,99.73,120.29,Open
538,4323.073246845394,2241.4999892115584,1185.715339865129,10997.348844688991,0.0,0.0,0.0,0.0,108.52,104.35,96.57,99.73,120.29,Open
539,4185.833535889809,2097.3088857303724,1052.342480700312,11022.315743245572,0.0,0.0,0.0,0.0,108.52,104.35,96.57,99.73,120.29,Open
540,4034.89220558312,1937.225691941463,806.2497742473811,10302.56722004023,0.0,0.0,0.0,0.0,108.52,104.35,96.57,99.73,120.29,Open
541,4045.2857667548383,1937.6727268305692,700.6824851849658,9669.58816881039,0.0,0.0,0.0,0.0,108.52,104.35,96.57,99.73,120.29,Open
542,4226.960745687574,2129.8753774017546,972.3232355503126,10181.152544159002,0.0,0.0,0.0,0.0,108.52,104.35,96.57,99.73,120.29,Open
543,4306.354141992824,2227.1948727601616,1188.6434183887743,11003.629684880934,0.0,0.0,0.0,0.0,108.52,104.35,96.57,99.73,120.29,Open
544,4173.87535260622,2091.7209496165456,1053.6388818787195,11025.959077591788,0.0,0.0,0.0,0.0,108.52,104.35,96.57,99.73,120.29,Open
545,4014.6191733621567,1925.580433080248,796.1467857535823,10298.454499060452,0.0,0.0,0.0,0.0,108.52,104.35,96.57,99.73,120.29,Open
546,4020.184757731528,1952.5142851488931,696.9497438609295,9661.273319873017,0.0,0.0,0.0,0.0,108.52,104.35,96.57,99.73,120.29,Open
547,4219.137635128216,2163.38064234026,984.6837502340974,10178.380927846543,0.0,0.0,0.0,0.0,108.52,104.35,96.57,99.73,120.29,Open
548,4311.919726362196,2248.1608090592395,1199.9086975942491,11008.055330283089,0.0,0.0,0.0,0.0,108.52,104.35,96.57,99.73,120.29,Open
549,4162.744183867477,2094.3137519733614,1050.9119690551722,11027.031961325642,0.0,0.0,0.0,0.0,108.52,104.35,96.57,99.73,120.29,Open
550,3986.523030581836,1918.0255434543544,785.3955966705796,10296.062862403734,0.0,0.0,0.0,0.0,108.52,104.35,96.57,99.73,120.29,Open
551,3986.7912515152993,1927.3685726366728,677.839002351642,9659.596939038864,0.0,0.0,0.0,0.0,108.52,104.35,96.57,99.73,120.29,Open
552,4195.556544727868,2142.705278719101,967.405851770145,10181.197247647911,0.0,0.0,0.0,0.0,108.52,104.35,96.57,99.73,120.29,Open
553,4274.771127077475,2222.9480413136534,1175.880572304794,11009.552897161591,0.0,0.0,0.0,0.0,112.27,112.21,102.88,101.14,109.02,Open
554,4156.597454142267,2100.1922607651068,1051.2248934775464,11027.166071792371,0.0,0.0,0.0,0.0,112.27,112.21,102.88,101.14,109.02,Open
555,3992.8932777515984,1930.4307616270496,795.0291985308169,10292.307769335242,0.0,0.0,0.0,0.0,112.27,112.21,102.88,101.14,109.02,Open
556,3990.8592690061655,1929.71550580448,679.9177145859856,9658.166427393726,0.0,0.0,0.0,0.0,112.27,112.21,102.88,101.14,109.02,Open
557,4161.559541411346,2127.6849064451344,956.9005318761508,10180.102012169602,0.0,0.0,0.0,0.0,112.27,112.21,102.88,101.14,109.02,Open
558,4279.777917835465,2245.322137513416,1193.940781824682,11011.98923730722,0.0,0.0,0.0,0.0,112.27,112.21,102.88,101.14,109.02,Open
559,4151.456552917547,2113.2680312714615,1057.7068993695857,11026.316705503072,0.0,0.0,0.0,0.0,112.27,112.21,102.88,101.14,109.02,Open
560,3957.577521512213,1920.417180111072,776.3878436550908,10288.820897200216,0.0,0.0,0.0,0.0,112.27,112.21,102.88,101.14,109.02,Open
561,3965.713556493945,1935.9963459964213,667.2442754798265,9659.507532061043,0.0,0.0,0.0,0.0,112.27,112.21,102.88,101.14,109.02,Open
562,4169.337948481792,2158.351499837816,959.7839069108852,10183.410070348988,0.0,0.0,0.0,0.0,112.27,112.21,102.88,101.14,109.02,Open
563,4247.8149232643755,2242.01407933403,1166.8951710337606,11014.090301286018,0.0,0.0,0.0,0.0,112.27,112.21,102.88,101.14,109.02,Open
564,4095.599543523734,2089.709292615568,1012.4222651031334,11030.09415031602,0.0,0.0,0.0,0.0,112.27,112.21,102.88,101.14,109.02,Open
565,3942.378335282605,1926.9662412364771,763.8485150156636,10291.950141423958,0.0,0.0,0.0,0.0,112.27,112.21,102.88,101.14,109.02,Open
566,3950.40261154206,1938.8573692867003,663.3997754335136,9660.267491372526,0.0,0.0,0.0,0.0,112.27,112.21,102.88,101.14,109.02,Open
567,4150.227206972505,2157.1445056372295,954.3300812637904,10185.421727349963,0.0,0.0,0.0,0.0,112.27,112.21,102.88,101.14,109.02,Open
568,4213.840271692308,2228.8041983609437,1147.9408917356602,11014.514984430669,0.0,0.0,0.0,0.0,112.27,112.21,102.88,101.14,109.02,Open
569,4077.449927026025,2081.483850656015,1005.560279555354,11026.070836314064,0.0,0.0,0.0,0.0,112.27,112.21,102.88,101.14,109.02,Open
570,3904.134500519574,1902.3793223356397,746.4812095738899,10286.2280948434,0.0,0.0,0.0,0.0,112.27,112.21,102.88,101.14,109.02,Open
571,3932.320050277716,1931.3695348941728,648.0441269927177,9660.11102916134,0.0,0.0,0.0,0.0,112.27,112.21,102.88,101.14,109.02,Open
572,4152.820009329321,2166.5545900529137,950.887912617673,10188.550971573708,0.0,0.0,0.0,0.0,112.27,112.21,102.88,101.14,109.02,Open
573,4231.431094578636,2249.6807276822005,1157.0156999845149,11013.687969885825,0.0,0.0,0.0,0.0,112.27,112.21,102.88,101.14,109.02,Open
574,4089.989255665452,2100.4604816985707,1009.2259656460244,11024.282696757638,0.0,0.0,0.0,0.0,112.27,112.21,102.88,101.14,109.02,Open
575,3912.3152389902166,1916.7961975093124,740.1556658930381,10284.305844820245,0.0,0.0,0.0,0.0,112.27,112.21,102.88,101.14,109.02,Open
576,3929.68254443199,1936.6892500745355,645.1831037024384,9658.926386705209,0.0,0.0,0.0,0.0,112.27,112.21,102.88,101.14,109.02,Open
577,4116.990162967463,2147.1756276101623,933.341793220257,10192.037843708737,0.0,0.0,0.0,0.0,112.27,112.21,102.88,101.14,109.02,Open
578,4198.372864529236,2233.922747841209,1135.8933014742497,11018.538298432624,0.0,0.0,0.0,0.0,112.27,112.21,102.88,101.14,109.02,Open
579,4093.5208312893906,2116.576089450847,1014.3445151262898,11023.723903146256,0.0,0.0,0.0,0.0,114.1,119.48,112.01,112.1,115.16,Open
580,3923.692276917968,1937.583319852748,757.7911922682754,10279.880199418092,0.0,0.0,0.0,0.0,114.1,119.48,112.01,112.1,115.16,Open
581,3929.168454309518,1947.976881024466,650.2793014382484,9658.18877913818,0.0,0.0,0.0,0.0,114.1,119.48,112.01,112.1,115.16,Open
582,4122.6228025702,2160.989005683542,931.3524879637348,10193.982445476347,0.0,0.0,0.0,0.0,114.1,119.48,112.01,112.1,115.16,Open
583,4194.1036813382725,2237.342564742871,1129.1877781376577,11019.387664721926,0.0,0.0,0.0,0.0,114.1,119.48,112.01,112.1,115.16,Open
584,4055.813438393288,2090.6257141382357,983.1191281222258,11023.52273744616,0.0,0.0,0.0,0.0,114.1,119.48,112.01,112.1,115.16,Open
585,3900.513517917814,1928.3967528816167,735.1041716461386,10280.237827329378,0.0,0.0,0.0,0.0,114.1,119.48,112.01,112.1,115.16,Open
586,3912.225832012395,1944.713526333991,640.8021617891982,9657.540578548978,0.0,0.0,0.0,0.0,114.1,119.48,112.01,112.1,115.16,Open
587,4108.898831474642,2161.7266132505674,926.3009937168353,10195.658826310497,0.0,0.0,0.0,0.0,114.1,119.48,112.01,112.1,115.16,Open
588,4189.5886289583,2246.260910780539,1129.500702560032,11017.085435043027,0.0,0.0,0.0,0.0,114.1,119.48,112.01,112.1,115.16,Open
589,4063.3012727858154,2108.1718335356513,991.7692532264296,11022.069874056564,0.0,0.0,0.0,0.0,114.1,119.48,112.01,112.1,115.16,Open
590,3892.489241658359,1932.3977151391168,729.4268285544907,10279.209647084434,0.0,0.0,0.0,0.0,114.1,119.48,112.01,112.1,115.16,Open
591,3909.498919188848,1952.6036921267143,633.0237547187513,9658.144075649272,0.0,0.0,0.0,0.0,114.1,119.48,112.01,112.1,115.16,Open
592,4106.149566906639,2166.532238308458,927.3291739617794,10198.475146111865,0.0,0.0,0.0,0.0,114.1,119.48,112.01,112.1,115.16,Open
593,4170.679053149111,2238.437800221181,1115.4861587865544,11021.667542656369,0.0,0.0,0.0,0.0,114.1,119.48,112.01,112.1,115.16,Open
594,4036.3674207171703,2095.163118262663,973.6196367287204,11021.734597889734,0.0,0.0,0.0,0.0,114.1,119.48,112.01,112.1,115.16,Open
595,3865.421279122982,1919.970145221966,715.7922644367534,10273.331138292688,0.0,0.0,0.0,0.0,117.22,128.2,124.67,123.28,120.56,Open
596,3873.2220379378846,1934.521130862371,613.0189434312515,9654.38898258078,0.0,0.0,0.0,0.0,117.22,128.2,124.67,123.28,120.56,Open
597,4082.18849685055,2158.083278904352,917.7849790793632,10198.16222168949,0.0,0.0,0.0,0.0,117.22,128.2,124.67,123.28,120.56,Open
598,4150.338965694781,2232.1346082847845,1111.1499203622247,11021.935763589832,0.0,0.0,0.0,0.0,117.22,128.2,124.67,123.28,120.56,Open
599,4015.3791326736377,2091.005693793976,963.9189796351172,11021.8016531231,0.0,0.0,0.0,0.0,117.22,128.2,124.67,123.28,120.56,Open
600,3834.397057819016,1905.0168281813656,702.2471072968373,10271.498295247353,0.0,0.0,0.0,0.0,117.22,128.2,124.67,123.28,120.56,Open
601,3862.895531999533,1935.3034419183068,612.9071847089749,9655.975956437109,0.0,0.0,0.0,0.0,117.22,128.2,124.67,123.28,120.56,Open
602,4091.8444504552426,2184.5253925949805,924.3787436936788,10200.419747879476,0.0,0.0,0.0,0.0,117.22,128.2,124.67,123.28,120.56,Open
603,4167.34864322527,2263.1364778442953,1125.1197606467915,11023.634496168435,0.0,0.0,0.0,0.0,117.22,128.2,124.67,123.28,120.56,Open
604,4023.4034089330926,2111.7257609040453,971.04918611636,11021.37696997845,0.0,0.0,0.0,0.0,117.22,128.2,124.67,123.28,120.56,Open
605,3857.9334447304545,1937.8962442751224,715.5240435032897,10270.470115002408,0.0,0.0,0.0,0.0,117.22,128.2,124.67,123.28,120.56,Open
606,3879.391119407549,1963.4666399319935,626.9887837158184,9657.495875060067,0.0,0.0,0.0,0.0,117.22,128.2,124.67,123.28,120.56,Open
607,4075.5276770028686,2175.8529157463213,921.4283134255784,10202.96784674738,0.0,0.0,0.0,0.0,117.22,128.2,124.67,123.28,120.56,Open
608,4116.945459478553,2227.1725210157065,1094.78844342094,11022.673371156856,0.0,0.0,0.0,0.0,117.22,128.2,124.67,123.28,120.56,Open
609,3996.5366120978138,2094.7607868624673,958.018119098916,11019.365312977472,0.0,0.0,0.0,0.0,117.22,128.2,124.67,123.28,120.56,Open
610,3852.680784783457,1937.0245262413653,716.8427964261529,10268.234940556877,0.0,0.0,0.0,0.0,117.22,128.2,124.67,123.28,120.56,Open
611,3861.845000010133,1955.2188462279853,617.0646091776621,9656.422991326212,0.0,0.0,0.0,0.0,121.75,137.91,142.88,132.69,118.38,Open
612,4050.5384267018353,2163.224180129073,910.3641999202014,10204.35365490361,0.0,0.0,0.0,0.0,121.75,137.91,142.88,132.69,118.38,Open
613,4116.029037955885,2229.5194541835135,1093.2461730535238,11024.237993268727,0.0,0.0,0.0,0.0,121.75,137.91,142.88,132.69,118.38,Open
614,4002.0574929782742,2101.019275309953,960.0744795888044,11019.074740299551,0.0,0.0,0.0,0.0,121.75,137.91,142.88,132.69,118.38,Open
615,3841.326098600161,1935.3034419183068,708.3938370220467,10267.922016134504,0.0,0.0,0.0,0.0,121.75,137.91,142.88,132.69,118.38,Open
616,3849.752706259812,1948.356860680206,606.1346061390169,9657.540578548978,0.0,0.0,0.0,0.0,121.75,137.91,142.88,132.69,118.38,Open
617,4049.644356923623,2162.3748138397714,906.8549760407182,10208.332265416657,0.0,0.0,0.0,0.0,121.75,137.91,142.88,132.69,118.38,Open
618,4117.191328667561,2234.1686170302173,1098.431777767155,11023.634496168435,0.0,0.0,0.0,0.0,121.75,137.91,142.88,132.69,118.38,Open
619,3990.3004753947826,2101.376903221238,958.1298778211924,11015.856089097988,0.0,0.0,0.0,0.0,121.75,137.91,142.88,132.69,118.38,Open
620,3831.3795723175494,1930.229595926952,702.80590090822,10263.161094565525,0.0,0.0,0.0,0.0,121.75,137.91,142.88,132.69,118.38,Open
621,3862.515552343793,1956.9846340399545,614.0918271651062,9656.758267493042,0.0,0.0,0.0,0.0,121.75,137.91,142.88,132.69,118.38,Open
622,4068.598636221723,2182.9831222275643,918.7237523464862,10210.030997995258,0.0,0.0,0.0,0.0,121.75,137.91,142.88,132.69,118.38,Open
623,4127.316668905815,2244.4951229685694,1100.018751623482,11025.534394447135,0.0,0.0,0.0,0.0,121.75,137.91,142.88,132.69,118.38,Open
624,3984.1537456695737,2089.217554237551,942.5283601913882,11012.905658829888,0.0,0.0,0.0,0.0,121.75,137.91,142.88,132.69,118.38,Open
625,3824.1599588584854,1918.2714126433627,692.0100083363067,10259.808332897226,0.0,0.0,0.0,0.0,121.75,137.91,142.88,132.69,118.38,Open
626,3862.5826075771583,1959.7562503524127,610.6049550300784,9656.065363414928,0.0,0.0,0.0,0.0,121.75,137.91,142.88,132.69,118.38,Open
627,4071.0796798562624,2185.0394827174523,914.923955789084,10211.662675340494,0.0,0.0,0.0,0.0,121.75,137.91,142.88,132.69,118.38,Open
628,4125.081494460284,2247.602015447857,1096.4201207661774,11027.344885748016,0.0,0.0,0.0,0.0,121.75,137.91,142.88,132.69,118.38,Open
629,3988.512335838358,2099.454653198082,944.987052081472,11013.7997286081,0.0,0.0,0.0,0.0,121.75,137.91,142.88,132.69,118.38,Open
630,3819.42138903396,1920.4395318555275,684.1868977769492,10257.662565429517,0.0,0.0,0.0,0.0,121.75,137.91,142.88,132.69,118.38,Open
631,3821.500101268304,1932.7329913059464,578.843126159087,9654.746610492064,0.0,0.0,0.0,0.0,121.75,137.91,142.88,132.69,118.38,Open
632,4049.8231708792655,2174.221238401084,897.1319672026596,10214.143718975034,0.0,0.0,0.0,0.0,121.75,137.91,142.88,132.69,118.38,Open
633,4121.594622325257,2246.01504159153,1087.0547398394035,11025.55674619159,0.0,0.0,0.0,0.0,121.75,137.91,142.88,132.69,118.38,Open
634,3979.16930665604,2094.090234528808,934.5264356763882,11010.446966939804,0.0,0.0,0.0,0.0,121.75,137.91,142.88,132.69,118.38,Open
635,3824.294069325217,1931.168369194075,687.2267350228709,10256.74614390685,0.0,0.0,0.0,0.0,121.75,137.91,142.88,132.69,118.38,Open
636,3833.0559531516974,1946.3452036792285,587.7614721967545,9658.38994483828,0.0,0.0,0.0,0.0,120.12,135.5,139.48,128.72,118.2,Open
637,4039.60842366319,2170.9802354550643,894.762682290397,10216.065968998191,0.0,0.0,0.0,0.0,120.12,135.5,139.48,128.72,118.2,Open
638,4098.1923458805495,2232.5592914294352,1076.236495523035,11022.047522312108,0.0,0.0,0.0,0.0,120.12,135.5,139.48,128.72,118.2,Open
639,3969.088669906696,2093.3749787062384,930.145493763148,11006.244838982206,0.0,0.0,0.0,0.0,120.12,135.5,139.48,128.72,118.2,Open
640,3815.0851506096305,1928.2402906704297,680.3647494750917,10256.567329951207,0.0,0.0,0.0,0.0,120.12,135.5,139.48,128.72,118.2,Open
641,3843.3601073455943,1955.9117503060995,592.4106350434583,9662.72618326261,0.0,0.0,0.0,0.0,120.12,135.5,139.48,128.72,118.2,Open
642,4039.0943335407183,2172.678968033668,890.4040921216122,10217.898812043526,0.0,0.0,0.0,0.0,120.12,135.5,139.48,128.72,118.2,Open
643,4124.746218293455,2262.1306493438065,1088.172327062169,11018.761815877178,0.0,0.0,0.0,0.0,120.12,135.5,139.48,128.72,118.2,Open
644,3998.481213865425,2122.767522664967,943.0871538027708,11001.148641246396,0.0,0.0,0.0,0.0,120.12,135.5,139.48,128.72,118.2,Open
645,3837.3474880871167,1949.228578713963,688.0761013121726,10255.896777617549,0.0,0.0,0.0,0.0,120.12,135.5,139.48,128.72,118.2,Open
646,3853.99953770632,1971.3344539802615,594.8246234446316,9667.375346109313,0.0,0.0,0.0,0.0,120.12,135.5,139.48,128.72,118.2,Open
647,4053.846484881221,2192.1696891986953,898.6295340811652,10217.83175681016,0.0,0.0,0.0,0.0,120.12,135.5,139.48,128.72,118.2,Open
648,4109.457625086025,2250.9100736272426,1073.9342658441385,11012.659789640878,0.0,0.0,0.0,0.0,120.12,135.5,139.48,128.72,118.2,Open
649,3971.748527496878,2097.219478752551,918.410827924112,10994.957208032276,0.0,0.0,0.0,0.0,120.12,135.5,139.48,128.72,118.2,Open
650,3829.099694383108,1942.8806832886555,676.3414354731364,10256.3214607622,0.0,0.0,0.0,0.0,120.12,135.5,139.48,128.72,118.2,Open
651,3851.831418494155,1969.5239626793816,590.9130681649528,9676.20428516916,0.0,0.0,0.0,0.0,120.12,135.5,139.48,128.72,118.2,Open
652,4055.813438393288,2188.414596130204,895.2320689239584,10225.319591202688,0.0,0.0,0.0,0.0,120.12,135.5,139.48,128.72,118.2,Open
653,4113.905622232631,2251.893550383276,1071.721443143063,11012.235106496228,0.0,0.0,0.0,0.0,120.96,132.6,134.98,121.69,110.36,Open
654,3979.795155500789,2109.356475991782,921.115389003204,10990.755080074678,0.0,0.0,0.0,0.0,120.96,132.6,134.98,121.69,110.36,Open
655,3829.613784505581,1950.0555932588093,676.095566284128,10253.259271771822,0.0,0.0,0.0,0.0,120.96,132.6,134.98,121.69,110.36,Open
656,3849.372726604072,1972.899076092133,586.5097745072574,9678.238293914592,0.0,0.0,0.0,0.0,120.96,132.6,134.98,121.69,110.36,Open
657,4051.6560139246008,2191.297971164938,889.1076909432044,10226.615992381096,0.0,0.0,0.0,0.0,120.96,132.6,134.98,121.69,110.36,Open
658,4102.282715115871,2248.3172712704268,1059.0033005479934,11007.027150038142,0.0,0.0,0.0,0.0,120.96,132.6,134.98,121.69,110.36,Open
659,3962.3160913367383,2098.471176442048,907.1679004630925,10985.41301314986,0.0,0.0,0.0,0.0,120.96,132.6,134.98,121.69,110.36,Open
660,3832.6312700070466,1953.0954305047312,676.6990633844214,10251.895815360049,0.0,0.0,0.0,0.0,120.96,132.6,134.98,121.69,110.36,Open
661,3851.85377023861,1975.357767982217,583.939323894897,9681.166372438238,0.0,0.0,0.0,0.0,120.96,132.6,134.98,121.69,110.36,Open
662,4052.192455791528,2194.896602022243,889.5770775767658,10230.259326727311,0.0,0.0,0.0,0.0,120.96,132.6,134.98,121.69,110.36,Open
663,4114.106787932728,2261.661262710245,1067.9663500745714,11007.407129693882,0.0,0.0,0.0,0.0,120.96,132.6,134.98,121.69,110.36,Open
664,3981.0245014458305,2117.358400506783,916.7567988344192,10982.820210793045,0.0,0.0,0.0,0.0,120.96,132.6,134.98,121.69,110.36,Open
665,3825.791636203722,1948.6697851025804,670.2170574923823,10247.783094380273,0.0,0.0,0.0,0.0,120.96,132.6,134.98,121.69,110.36,Open
666,3848.9256917149655,1975.4024714711277,586.0403878736959,9679.624102070822,0.0,0.0,0.0,0.0,120.96,132.6,134.98,121.69,110.36,Open
667,4047.699755156011,2194.5836775998687,888.4594903540004,10231.488672672353,0.0,0.0,0.0,0.0,120.96,132.6,134.98,121.69,110.36,Open
668,4113.145662921151,2263.0247191220187,1067.2510942520016,11006.714225615768,0.0,0.0,0.0,0.0,120.96,132.6,134.98,121.69,110.36,Open
669,3991.127489939629,2128.958955879087,927.1727117505924,10980.65209158088,0.0,0.0,0.0,0.0,119.44,132.06,135.76,124.59,114.52,Open
670,3832.340697329128,1959.5997881412256,677.7272436293655,10246.062010057212,0.0,0.0,0.0,0.0,119.44,132.06,135.76,124.59,114.52,Open
671,3852.859598739099,1984.5890384422587,591.0248268872293,9680.004081726562,0.0,0.0,0.0,0.0,119.44,132.06,135.76,124.59,114.52,Open
672,4048.32560400076,2197.8917357792543,889.9123537435954,10231.823948839185,0.0,0.0,0.0,0.0,119.44,132.06,135.76,124.59,114.52,Open
673,4106.261325628916,2260.7895446764883,1059.919722070661,11009.75406286169,0.0,0.0,0.0,0.0,119.44,132.06,135.76,124.59,114.52,Open
674,3981.560943312758,2119.5265197189474,916.7120953455086,10983.60252184898,0.0,0.0,0.0,0.0,119.44,132.06,135.76,124.59,114.52,Open
675,3825.56811875917,1950.9943665259325,668.0042347913069,10244.36327747861,0.0,0.0,0.0,0.0,119.44,132.06,135.76,124.59,114.52,Open
676,3849.775058004267,1979.649302917636,586.777995440721,9677.903017747763,0.0,0.0,0.0,0.0,119.44,132.06,135.76,124.59,114.52,Open
677,4063.793011163833,2214.0073435315303,897.7131125584975,10236.048428541237,0.0,0.0,0.0,0.0,119.44,132.06,135.76,124.59,114.52,Open
678,4120.7229042915,2276.659283239756,1072.950789088105,11013.956190819286,0.0,0.0,0.0,0.0,119.44,132.06,135.76,124.59,114.52,Open
679,3985.852478248177,2128.310755289883,927.2844704728687,10980.965016003254,0.0,0.0,0.0,0.0,119.44,132.06,135.76,124.59,114.52,Open
680,3823.355296058094,1953.00602352691,675.6708831394772,10237.92597507548,0.0,0.0,0.0,0.0,119.44,132.06,135.76,124.59,114.52,Open
681,3844.2541771238066,1979.783413384368,589.393149541992,9670.661052544245,0.0,0.0,0.0,0.0,119.44,132.06,135.76,124.59,114.52,Open
682,4049.04085982333,2203.1667474707065,898.2719061698803,10235.400227952032,0.0,0.0,0.0,0.0,119.44,132.06,135.76,124.59,114.52,Open
683,4104.808462239321,2264.946969145175,1069.2627512529791,11015.140833275418,0.0,0.0,0.0,0.0,119.44,132.06,135.76,124.59,114.52,Open
684,3985.7407195259,2131.641165213724,929.8772728296844,10983.334300915516,0.0,0.0,0.0,0.0,119.44,132.06,135.76,124.59,114.52,Open
685,3834.754685730301,1968.3840237121613,683.7622146322983,10234.93084131847,0.0,0.0,0.0,0.0,119.55,133.11,138.9,128.47,118.12,Open
686,3864.594264578136,1998.648285704647,607.5427660397013,9667.218883898126,0.0,0.0,0.0,0.0,119.55,133.11,138.9,128.47,118.12,Open
687,4055.7240314154665,2214.34261969836,905.826795795774,10235.377876207576,0.0,0.0,0.0,0.0,119.55,133.11,138.9,128.47,118.12,Open
688,4107.378912851681,2273.977073905119,1075.6329984227418,11019.99116182222,0.0,0.0,0.0,0.0,119.55,133.11,138.9,128.47,118.12,Open
689,3964.551265782269,2119.481816230037,918.9025663021288,10984.004853249176,0.0,0.0,0.0,0.0,119.55,133.11,138.9,128.47,118.12,Open
690,3832.228938606851,1970.8203638577895,684.9468570884296,10232.963887806403,0.0,0.0,0.0,0.0,119.55,133.11,138.9,128.47,118.12,Open
691,3868.036433224253,2009.7571026989344,612.5719085421454,9665.542503063978,0.0,0.0,0.0,0.0,119.55,133.11,138.9,128.47,118.12,Open
692,4059.389717506137,2222.769227358011,912.599374365732,10237.50129193083,0.0,0.0,0.0,0.0,119.55,133.11,138.9,128.47,118.12,Open
693,4109.032941941374,2280.168507119239,1078.4493182241104,11023.455682212792,0.0,0.0,0.0,0.0,119.55,133.11,138.9,128.47,118.12,Open
694,3970.161553640551,2129.070714601364,921.9647552925056,10985.345957916494,0.0,0.0,0.0,0.0,119.55,133.11,138.9,128.47,118.12,Open
695,3813.9675633868655,1959.1080497632088,676.1626215174939,10229.231146482369,0.0,0.0,0.0,0.0,119.55,133.11,138.9,128.47,118.12,Open
696,3844.634156779546,1995.1837653140744,603.6982659933884,9662.01092744004,0.0,0.0,0.0,0.0,119.55,133.11,138.9,128.47,118.12,Open
697,4043.274109753861,2217.605974388835,909.246612697436,10237.657754142016,0.0,0.0,0.0,0.0,119.55,133.11,138.9,128.47,118.12,Open
698,4103.445005827547,2282.090757142396,1079.7680711469736,11029.155377048895,0.0,0.0,0.0,0.0,119.55,133.11,138.9,128.47,118.12,Open
699,3966.518219294336,2135.351554793305,925.8539588277292,10989.70454808528,0.0,0.0,0.0,0.0,119.55,133.11,138.9,128.47,118.12,Open
700,3816.47095876586,1966.6405876446472,680.5212116862788,10226.2136609809,0.0,0.0,0.0,0.0,119.55,133.11,138.9,128.47,118.12,Open
701,3836.364011331083,1990.8475268897448,597.7527019682768,9657.04884017096,0.0,0.0,0.0,0.0,119.55,133.11,138.9,128.47,118.12,Open
702,4043.296461498316,2222.188082002173,905.536223117855,10237.613050653106,0.0,0.0,0.0,0.0,119.55,133.11,138.9,128.47,118.12,Open
703,4101.880383715676,2291.0538066689737,1084.3501787603116,11034.028057340152,0.0,0.0,0.0,0.0,119.55,133.11,138.9,128.47,118.12,Open
704,3945.217006828429,2130.5906332243244,918.8802145576732,10993.571399876048,0.0,0.0,0.0,0.0,119.55,133.11,138.9,128.47,118.12,Open
705,3795.2144497888626,1958.683366618558,673.2345429938488,10225.408998180508,0.0,0.0,0.0,0.0,119.55,133.11,138.9,128.47,118.12,Open
706,3823.064723380175,1985.77368089839,595.5398792672014,9655.595976781366,0.0,0.0,0.0,0.0,119.55,133.11,138.9,128.47,118.12,Open
707,4026.018563034363,2212.8897563087653,908.7772260638744,10239.334134976163,0.0,0.0,0.0,0.0,119.55,133.11,138.9,128.47,118.12,Open
708,4093.297313844838,2287.321065344938,1080.7738996474625,11034.47509222926,0.0,0.0,0.0,0.0,119.55,133.11,138.9,128.47,118.12,Open
709,3963.813658215244,2144.046383386419,931.4195431971006,10993.325530687038,0.0,0.0,0.0,0.0,119.55,133.11,138.9,128.47,118.12,Open
710,3802.121138825552,1970.1721632685856,680.4094529640023,10223.93378304646,0.0,0.0,0.0,0.0,119.55,133.11,138.9,128.47,118.12,Open
711,3809.765435429268,1987.137137310164,593.1929460993941,9654.031354669494,0.0,0.0,0.0,0.0,117.1,131.15,132.37,119.39,114.45,Open
712,4009.098292481696,2213.448549920148,901.535260860355,10242.686896644462,0.0,0.0,0.0,0.0,117.1,131.15,132.37,119.39,114.45,Open
713,4073.381909535159,2281.151983875273,1072.2355332655352,11034.720961418268,0.0,0.0,0.0,0.0,117.1,131.15,132.37,119.39,114.45,Open
714,3935.6057567126463,2130.2330053130395,914.052237755327,10990.17393471884,0.0,0.0,0.0,0.0,117.1,131.15,132.37,119.39,114.45,Open
715,3787.4807462073263,1966.685291133558,670.3735197035694,10220.78218707826,0.0,0.0,0.0,0.0,117.1,131.15,132.37,119.39,114.45,Open
716,3809.586621473625,1995.3178757808064,591.4942135207908,9654.299575602958,0.0,0.0,0.0,0.0,117.1,131.15,132.37,119.39,114.45,Open
717,4007.824243047743,2217.2036429886393,899.6130108371987,10244.899719345536,0.0,0.0,0.0,0.0,117.1,131.15,132.37,119.39,114.45,Open
718,4065.022357108874,2284.6835594992112,1068.9274750861496,11037.47022598627,0.0,0.0,0.0,0.0,117.1,131.15,132.37,119.39,114.45,Open
719,3938.645593958568,2143.9793281530533,923.5293774043772,10989.525734129636,0.0,0.0,0.0,0.0,117.1,131.15,132.37,119.39,114.45,Open
720,3767.922969808933,1958.7727735963792,665.8137638346868,10214.836623053148,0.0,0.0,0.0,0.0,117.1,131.15,132.37,119.39,114.45,Open
721,3786.519621195748,1984.5219832088928,586.2639053182489,9651.013869168028,0.0,0.0,0.0,0.0,117.1,131.15,132.37,119.39,114.45,Open
722,3999.97878074393,2221.7410471130665,903.0998829722264,10246.956079835423,0.0,0.0,0.0,0.0,117.1,131.15,132.37,119.39,114.45,Open
723,4062.071926840774,2289.7127020016555,1072.1908297766245,11040.599470210012,0.0,0.0,0.0,0.0,117.1,131.15,132.37,119.39,114.45,Open
724,3932.5659194667246,2145.633357242746,922.0988657592376,10990.375100418938,0.0,0.0,0.0,0.0,117.1,131.15,132.37,119.39,114.45,Open
725,3766.7383273528017,1969.8815905906667,666.3725574460694,10214.121367230578,0.0,0.0,0.0,0.0,117.1,131.15,132.37,119.39,114.45,Open
726,3804.959810371377,2024.710419739535,601.1054636365728,9652.220863368617,0.0,0.0,0.0,0.0,117.1,131.15,132.37,119.39,114.45,Open
727,3985.606609059169,2228.53597742748,905.0891882287488,10247.671335657997,0.0,0.0,0.0,0.0,117.37,131.41,139.4,128.95,117.45,Open
728,4043.542330687324,2281.30844608646,1064.2336087505353,11038.788978909131,0.0,0.0,0.0,0.0,117.37,131.41,139.4,128.95,117.45,Open
729,3910.5718029227023,2126.343801777816,903.5245661168774,10986.754117817178,0.0,0.0,0.0,0.0,117.37,131.41,139.4,128.95,117.45,Open
730,3753.103763235064,1957.2081514845077,658.772964331265,10210.768605562283,0.0,0.0,0.0,0.0,117.37,131.41,139.4,128.95,117.45,Open
731,3788.553629941181,2001.3975502726496,594.6458094889891,9651.773828479509,0.0,0.0,0.0,0.0,117.37,131.41,139.4,128.95,117.45,Open
732,4000.604629588679,2234.7497623860554,915.5274528893772,10251.158207793023,0.0,0.0,0.0,0.0,117.37,131.41,139.4,128.95,117.45,Open
733,4038.580243418246,2283.409510065259,1068.145164030214,11038.386647508938,0.0,0.0,0.0,0.0,117.37,131.41,139.4,128.95,117.45,Open
734,3886.655436355524,2122.7004674316013,899.7694730483859,10984.585998605013,0.0,0.0,0.0,0.0,117.37,131.41,139.4,128.95,117.45,Open
735,3748.879283533011,1965.970035310988,662.8633335665862,10210.07570148417,0.0,0.0,0.0,0.0,117.37,131.41,139.4,128.95,117.45,Open
736,3772.8403535891,2001.8892886506665,589.4825565198132,9650.544482534468,0.0,0.0,0.0,0.0,117.37,131.41,139.4,128.95,117.45,Open
737,3966.1829431275064,2221.159901757229,897.5790020917657,10253.147513049546,0.0,0.0,0.0,0.0,117.37,131.41,139.4,128.95,117.45,Open
738,4027.694943868511,2286.2928850999933,1064.635940150731,11042.722885933266,0.0,0.0,0.0,0.0,117.37,131.41,139.4,128.95,117.45,Open
739,3918.171396037507,2158.1056306488076,925.7198483609972,10986.731766072722,0.0,0.0,0.0,0.0,117.37,131.41,139.4,128.95,117.45,Open
740,3749.706298077858,1974.2178290149964,668.7418423583321,10207.21467819389,0.0,0.0,0.0,0.0,117.37,131.41,139.4,128.95,117.45,Open
741,3774.114403023053,2006.8960794086552,591.8965449209863,9650.700944745651,0.0,0.0,0.0,0.0,117.37,131.41,139.4,128.95,117.45,Open
742,3978.45405083347,2236.3367362423824,907.8384527967517,10254.93565260597,0.0,0.0,0.0,0.0,117.37,131.41,139.4,128.95,117.45,Open
743,4024.297478711305,2290.919696202242,1066.0664517958703,11042.991106866732,0.0,0.0,0.0,0.0,117.37,131.41,139.4,128.95,117.45,Open
744,3874.205514693918,2128.243700056518,902.2281649384696,10986.21767595025,0.0,0.0,0.0,0.0,117.25,132.84,140.61,130.7,120.23,Open
745,3720.4478645858608,1957.096392762231,656.8954177970193,10202.990198491836,0.0,0.0,0.0,0.0,117.25,132.84,140.61,130.7,120.23,Open
746,3764.659615118458,2005.7337886969792,593.7517397107769,9650.6785930012,0.0,0.0,0.0,0.0,117.25,132.84,140.61,130.7,120.23,Open
747,3979.6610450340568,2246.663242180734,910.5206621313883,10256.612033440118,0.0,0.0,0.0,0.0,117.25,132.84,140.61,130.7,120.23,Open
748,4028.030220035341,2305.0907021869066,1070.7826698759402,11044.913356889889,0.0,0.0,0.0,0.0,117.25,132.84,140.61,130.7,120.23,Open
749,3866.672976812479,2129.1377698347296,902.8763655276734,10985.234199194218,0.0,0.0,0.0,0.0,117.25,132.84,140.61,130.7,120.23,Open
750,3720.7384372637794,1963.6231021431809,660.2481794653153,10203.54899210322,0.0,0.0,0.0,0.0,117.25,132.84,140.61,130.7,120.23,Open
751,3765.4419261743938,2016.999067902454,598.4903095353019,9649.382191822791,0.0,0.0,0.0,0.0,117.25,132.84,140.61,130.7,120.23,Open
752,3974.229571131417,2248.92076837072,911.9064702876176,10257.863731129615,0.0,0.0,0.0,0.0,117.25,132.84,140.61,130.7,120.23,Open
753,4012.942792528009,2297.7146265166552,1066.1335070292362,11044.689839445336,0.0,0.0,0.0,0.0,117.25,132.84,140.61,130.7,120.23,Open
754,3872.350319904127,2141.990022896531,908.1960807080366,10983.624873593437,0.0,0.0,0.0,0.0,117.25,132.84,140.61,130.7,120.23,Open
755,3722.9736117093103,1975.3130644933065,665.031452778751,10201.06794846868,0.0,0.0,0.0,0.0,117.25,132.84,140.61,130.7,120.23,Open
756,3758.915216793444,2018.16135861413,600.5019665362795,9653.271395358017,0.0,0.0,0.0,0.0,117.25,132.84,140.61,130.7,120.23,Open
757,3952.615434243135,2237.2531577650498,906.7208655739864,10262.423486998498,0.0,0.0,0.0,0.0,117.25,132.84,140.61,130.7,120.23,Open
758,3989.2499434053834,2284.4823937991137,1055.4270214351443,11045.919185390376,0.0,0.0,0.0,0.0,117.25,132.84,140.61,130.7,120.23,Open
759,3854.7594970178006,2133.5187117479695,903.5469178613326,10982.574341604037,0.0,0.0,0.0,0.0,117.25,132.84,140.61,130.7,120.23,Open
760,3706.9921144237655,1964.9865585549544,661.455173665902,10198.810422278691,0.0,0.0,0.0,0.0,117.25,132.84,140.61,130.7,120.23,Open
761,3735.579995582103,2000.771701427901,592.7012077213774,9650.946813934665,0.0,0.0,0.0,0.0,117.25,132.84,140.61,130.7,120.23,Open
762,3940.567843981724,2235.1073902973403,905.960906262506,10263.228149798888,0.0,0.0,0.0,0.0,117.25,132.84,140.61,130.7,120.23,Open
763,4001.163423200062,2302.1402719188063,1065.239437251024,11048.959022636298,0.0,0.0,0.0,0.0,117.25,132.84,140.61,130.7,120.23,Open
764,3870.808049536711,2154.775220724967,912.1299877321708,10982.8425625375,0.0,0.0,0.0,0.0,117.25,132.84,140.61,130.7,120.23,Open
765,3711.194242381363,1981.0127593294096,665.098508012117,10198.63160832305,0.0,0.0,0.0,0.0,117.25,132.84,140.61,130.7,120.23,Open
766,3743.581920097103,2019.882442937189,601.9101264369639,9654.634851769788,0.0,0.0,0.0,0.0,117.25,132.84,140.61,130.7,120.23,Open
767,3940.053753859253,2238.5942624323684,909.6489440976316,10266.513856233818,0.0,0.0,0.0,0.0,117.25,132.84,140.61,130.7,120.23,Open
768,3973.0002251863752,2283.6553792542672,1052.342480700312,11048.71315344729,0.0,0.0,0.0,0.0,117.98,133.78,142.0,131.67,123.97,Open
769,3834.017078163276,2131.618813469269,890.0464642103273,10980.65209158088,0.0,0.0,0.0,0.0,117.98,133.78,142.0,131.67,123.97,Open
770,3716.9386407063776,1987.360654754717,668.1383452580387,10197.82694552266,0.0,0.0,0.0,0.0,117.98,133.78,142.0,131.67,123.97,Open
771,3740.430324128905,2019.0554283923425,596.7021699788774,9655.461866314634,0.0,0.0,0.0,0.0,117.98,133.78,142.0,131.67,123.97,Open
772,3936.678640446501,2246.1938555471725,904.8209672952852,10265.418620755509,0.0,0.0,0.0,0.0,117.98,133.78,142.0,131.67,123.97,Open
773,3988.154707927073,2309.136367933317,1062.981911061038,11045.941537134831,0.0,0.0,0.0,0.0,117.98,133.78,142.0,131.67,123.97,Open
774,3847.495180069826,2151.511866034492,906.0503132403272,10978.640434579902,0.0,0.0,0.0,0.0,117.98,133.78,142.0,131.67,123.97,Open
775,3703.035855655176,1981.3480354962392,662.5951126331225,10195.524715843763,0.0,0.0,0.0,0.0,117.98,133.78,142.0,131.67,123.97,Open
776,3751.919120778933,2034.746352999968,604.7935014716985,9658.881683216296,0.0,0.0,0.0,0.0,117.98,133.78,142.0,131.67,123.97,Open
777,3941.886596904588,2257.7720591750217,912.3535051767236,10271.900626647548,0.0,0.0,0.0,0.0,117.98,133.78,142.0,131.67,123.97,Open
778,3974.274274620328,2302.2296788966273,1059.338576714823,11044.7568946787,0.0,0.0,0.0,0.0,117.98,133.78,142.0,131.67,123.97,Open
779,3850.155037660008,2156.8539329593104,911.7053045875198,10974.684175811311,0.0,0.0,0.0,0.0,117.98,133.78,142.0,131.67,123.97,Open
780,3693.2234398392966,1971.4685644469937,663.1315545000499,10194.250666409813,0.0,0.0,0.0,0.0,117.98,133.78,142.0,131.67,123.97,Open
781,3740.3856206399946,2021.737637726979,602.0665886481511,9660.088677416885,0.0,0.0,0.0,0.0,117.98,133.78,142.0,131.67,123.97,Open
782,3933.750561922856,2256.028623107508,912.599374365732,10273.331138292688,0.0,0.0,0.0,0.0,117.98,133.78,142.0,131.67,123.97,Open
783,3957.108134878652,2296.2170596381497,1051.2695969664571,11042.745237677722,0.0,0.0,0.0,0.0,117.98,133.78,142.0,131.67,123.97,Open
784,3829.904357183499,2148.9414154221317,900.7753015488746,10968.805667019567,0.0,0.0,0.0,0.0,117.98,133.78,142.0,131.67,123.97,Open
785,3703.728759733291,1985.2148872870073,670.0605952811951,10193.53541058724,0.0,0.0,0.0,0.0,115.31,130.63,138.37,127.98,119.79,Open
786,3736.228196171307,2024.35279182825,601.776015970232,9662.81559024043,0.0,0.0,0.0,0.0,115.31,130.63,138.37,127.98,119.79,Open
787,3910.616506411613,2242.3940589897707,901.7364265604529,10274.18050458199,0.0,0.0,0.0,0.0,115.31,130.63,138.37,127.98,119.79,Open
788,3945.0158411283305,2297.468757327647,1048.073297509348,11039.504234731705,0.0,0.0,0.0,0.0,115.31,130.63,138.37,127.98,119.79,Open
789,3830.4407990504264,2160.5866742833464,907.793749307841,10965.36349837345,0.0,0.0,0.0,0.0,115.31,130.63,138.37,127.98,119.79,Open
790,3713.652934271447,1995.4072827586272,675.6708831394772,10190.473221596863,0.0,0.0,0.0,0.0,115.31,130.63,138.37,127.98,119.79,Open
791,3738.1951496833744,2019.100131881253,597.0597978901623,9669.454058343656,0.0,0.0,0.0,0.0,115.31,130.63,138.37,127.98,119.79,Open
792,3910.683561644979,2250.9994806050636,901.4011503936232,10279.768440695816,0.0,0.0,0.0,0.0,115.31,130.63,138.37,127.98,119.79,Open
793,3951.028460386808,2311.9303359902306,1052.8789225672392,11036.576156208055,0.0,0.0,0.0,0.0,115.31,130.63,138.37,127.98,119.79,Open
794,3827.803293204701,2159.4690870605814,901.602316093721,10960.848445993475,0.0,0.0,0.0,0.0,115.31,130.63,138.37,127.98,119.79,Open
795,3696.0621113851207,1983.8514308752335,662.1033742551058,10191.188477419431,0.0,0.0,0.0,0.0,115.31,130.63,138.37,127.98,119.79,Open
796,3740.653841573458,2030.0524866643536,604.0335421602181,9678.059479958947,0.0,0.0,0.0,0.0,115.31,130.63,138.37,127.98,119.79,Open
797,3910.325933733694,2254.5981114623683,906.9667347629946,10284.529362264797,0.0,0.0,0.0,0.0,115.31,130.63,138.37,127.98,119.79,Open
798,3938.980870125398,2306.78943476551,1048.9673672875604,11031.52466196116,0.0,0.0,0.0,0.0,115.31,130.63,138.37,127.98,119.79,Open
799,3814.571060487159,2150.9530724231095,895.1650136905926,10951.080733666508,0.0,0.0,0.0,0.0,115.31,130.63,138.37,127.98,119.79,Open
800,3681.689939700358,1978.0846808057645,657.3424526861254,10188.170991917968,0.0,0.0,0.0,0.0,115.31,130.63,138.37,127.98,119.79,Open
801,3731.0202397132207,2029.225472119507,602.133643881517,9684.094450961882,0.0,0.0,0.0,0.0,115.5,129.55,132.29,121.05,115.4,Open
802,3910.504747689337,2261.884780154798,905.7820923068634,10289.446746044963,0.0,0.0,0.0,0.0,115.5,129.55,132.29,121.05,115.4,Open
803,3937.34919278016,2312.5561848349794,1046.620434119753,11027.210775281284,0.0,0.0,0.0,0.0,115.5,129.55,132.29,121.05,115.4,Open
804,3821.5224530127593,2165.057023174408,903.7480835614303,10943.92817544081,0.0,0.0,0.0,0.0,115.5,129.55,132.29,121.05,115.4,Open
805,3687.143765347453,1992.8815356351777,664.4950109118237,10187.321625628663,0.0,0.0,0.0,0.0,115.5,129.55,132.29,121.05,115.4,Open
806,3740.1397514509863,2044.7152310270349,608.54859454019,9691.805802798965,0.0,0.0,0.0,0.0,115.5,129.55,132.29,121.05,115.4,Open
807,3905.520308675803,2261.8400766658874,904.3068771728132,10296.42049031502,0.0,0.0,0.0,0.0,115.5,129.55,132.29,121.05,115.4,Open
808,3930.8895386325767,2309.6504580557894,1034.9751752585382,11020.70641764479,0.0,0.0,0.0,0.0,115.5,129.55,132.29,121.05,115.4,Open
809,3807.5973162171026,2156.1386771367406,887.2524961534139,10932.506434024148,0.0,0.0,0.0,0.0,115.5,129.55,132.29,121.05,115.4,Open
810,3689.6918642153582,1996.4578147480267,662.7962783332204,10182.672462781962,0.0,0.0,0.0,0.0,115.5,129.55,132.29,121.05,115.4,Open
811,3753.394335912983,2057.8804085112106,619.4338940899246,9698.377215668825,0.0,0.0,0.0,0.0,115.5,129.55,132.29,121.05,115.4,Open
812,3919.043114071264,2278.156850118262,913.247574954936,10298.968589182923,0.0,0.0,0.0,0.0,115.5,129.55,132.29,121.05,115.4,Open
813,3929.68254443199,2308.59992606639,1034.9751752585382,11014.514984430669,0.0,0.0,0.0,0.0,115.5,129.55,132.29,121.05,115.4,Open
814,3806.010342360776,2154.864627702788,885.5090600858999,10924.25864032014,0.0,0.0,0.0,0.0,115.5,129.55,132.29,121.05,115.4,Open
815,3706.545079534659,2012.7522364559456,672.9886738048403,10179.498515069308,0.0,0.0,0.0,0.0,115.5,129.55,132.29,121.05,115.4,Open
816,3748.745173066279,2060.584969590303,613.6000887870895,9704.25572446057,0.0,0.0,0.0,0.0,115.5,129.55,132.29,121.05,115.4,Open
817,3907.2413929988616,2271.048995381474,903.8151387947964,10301.784908984291,0.0,0.0,0.0,0.0,115.5,129.55,132.29,121.05,115.4,Open
818,3932.789436911278,2317.2276994261383,1034.1928642026023,11009.105862272483,0.0,0.0,0.0,0.0,115.5,129.55,132.29,121.05,115.4,Open
819,3818.437912277927,2173.997720956531,891.5216793443775,10917.39665477236,0.0,0.0,0.0,0.0,115.5,129.55,132.29,121.05,115.4,Open
820,3700.532460276182,2014.4286172900936,666.260798723793,10176.793953990216,0.0,0.0,0.0,0.0,115.5,129.55,132.29,121.05,115.4,Open
821,3746.509998620749,2064.4741731255262,615.388228343514,9708.904887307272,0.0,0.0,0.0,0.0,115.5,129.55,132.29,121.05,115.4,Open
822,3889.6952736014455,2266.824515679421,897.1766706915702,10308.490432320885,0.0,0.0,0.0,0.0,115.5,129.55,132.29,121.05,115.4,Open
823,3912.4046459680376,2315.0372284695186,1024.0675239643483,11013.643266396914,0.0,0.0,0.0,0.0,115.5,129.55,132.29,121.05,115.4,Open
824,3822.282412324239,2185.1735931841845,892.5945630782322,10919.78829142908,0.0,0.0,0.0,0.0,115.5,129.55,132.29,121.05,115.4,Open
825,3700.7559777207352,2017.647268491658,663.9585690448963,10180.660805780984,0.0,0.0,0.0,0.0,115.5,129.55,132.29,121.05,115.4,Open
826,3749.5721876111256,2075.448879653082,614.807082987676,9716.616239144354,0.0,0.0,0.0,0.0,116.62,127.82,129.0,118.9,113.57,Open
827,3907.10728253213,2284.7729664770327,905.0444847398384,10312.401987600564,0.0,0.0,0.0,0.0,116.62,127.82,129.0,118.9,113.57,Open
828,3929.2131577984287,2325.0061064965853,1030.5048263674769,11010.804594851088,0.0,0.0,0.0,0.0,116.62,127.82,129.0,118.9,113.57,Open
829,3810.5700982296585,2174.66827329019,881.5080978284,10912.747491925657,0.0,0.0,0.0,0.0,116.62,127.82,129.0,118.9,113.57,Open
830,3687.970779892299,2014.3392103122728,653.743821828821,10177.173933645956,0.0,0.0,0.0,0.0,116.62,127.82,129.0,118.9,113.57,Open
831,3739.1339229504974,2072.4313941516157,603.0277136597292,9717.040922289005,0.0,0.0,0.0,0.0,116.62,127.82,129.0,118.9,113.57,Open
832,3905.944991820454,2289.7350537461107,901.1329294601596,10314.145423668078,0.0,0.0,0.0,0.0,116.62,127.82,129.0,118.9,113.57,Open
833,3925.659230430035,2329.0741239874515,1029.8342740338176,11010.782243106634,0.0,0.0,0.0,0.0,116.62,127.82,129.0,118.9,113.57,Open
834,3815.554537243192,2188.2357821745613,889.4429671100339,10910.86994539141,0.0,0.0,0.0,0.0,116.62,127.82,129.0,118.9,113.57,Open
835,3697.49262303026,2030.745390742468,656.9401212859299,10174.91640745597,0.0,0.0,0.0,0.0,116.62,127.82,129.0,118.9,113.57,Open
836,3746.532350365204,2085.2612954689616,607.7662834842544,9717.26443973356,0.0,0.0,0.0,0.0,116.62,127.82,129.0,118.9,113.57,Open
837,3891.639875369058,2281.9789984201193,897.8248712807741,10317.431130103008,0.0,0.0,0.0,0.0,116.62,127.82,129.0,118.9,113.57,Open
838,3926.620355441613,2336.0031647685964,1026.4144571321556,11013.643266396914,0.0,0.0,0.0,0.0,116.62,127.82,129.0,118.9,113.57,Open
839,3817.588545988625,2197.399997401237,889.89000199914,10912.434567503282,0.0,0.0,0.0,0.0,116.62,127.82,129.0,118.9,113.57,Open
840,3700.7559777207352,2038.0097076904424,660.3375864431365,10170.021375420258,0.0,0.0,0.0,0.0,116.62,127.82,129.0,118.9,113.57,Open
841,3737.748114794268,2082.735548345512,604.972315427341,9713.486994920611,0.0,0.0,0.0,0.0,116.62,127.82,129.0,118.9,113.57,Open
842,3905.699122631446,2303.660190541767,905.7373888179528,10319.107510937156,0.0,0.0,0.0,0.0,116.62,127.82,129.0,118.9,113.57,Open
843,3938.287966047283,2352.6105108988895,1035.6457275921975,11014.962019319775,0.0,0.0,0.0,0.0,114.31,127.9,127.14,116.59,112.11,Open
844,3814.235784320329,2200.2610206915165,885.6878740415424,10911.473442491704,0.0,0.0,0.0,0.0,114.31,127.9,127.14,116.59,112.11,Open
845,3692.01644563871,2037.585024545792,654.9955195183181,10168.836732964128,0.0,0.0,0.0,0.0,114.31,127.9,127.14,116.59,112.11,Open
846,3723.063018687132,2077.5946471207913,592.9694286548411,9710.40245418578,0.0,0.0,0.0,0.0,114.31,127.9,127.14,116.59,112.11,Open
847,3904.469776686404,2307.6388010548117,901.6470195826316,10322.28145864981,0.0,0.0,0.0,0.0,114.31,127.9,127.14,116.59,112.11,Open
848,3924.92162286301,2345.36854569537,1024.6710210646418,11020.70641764479,0.0,0.0,0.0,0.0,114.31,127.9,127.14,116.59,112.11,Open
849,3805.987990616321,2197.176479956684,877.8200599932743,10915.273239049106,0.0,0.0,0.0,0.0,114.31,127.9,127.14,116.59,112.11,Open
850,3686.115585102509,2038.7026117685573,648.9605485153853,10166.020413162758,0.0,0.0,0.0,0.0,114.31,127.9,127.14,116.59,112.11,Open
851,3739.066867717131,2095.185470007118,606.4698823058466,9710.469509419145,0.0,0.0,0.0,0.0,114.31,127.9,127.14,116.59,112.11,Open
852,3887.951837533932,2298.2063648946723,899.0095137369053,10323.175528428024,0.0,0.0,0.0,0.0,114.31,127.9,127.14,116.59,112.11,Open
853,3928.050867086753,2356.410307456292,1032.6952973240968,11022.628667667948,0.0,0.0,0.0,0.0,114.31,127.9,127.14,116.59,112.11,Open
854,3805.22803130484,2205.8489568053433,884.0785484407603,10915.697922193756,0.0,0.0,0.0,0.0,114.31,127.9,127.14,116.59,112.11,Open
855,3680.952332133333,2043.195312404074,648.7370310708321,10163.53936952822,0.0,0.0,0.0,0.0,114.31,127.9,127.14,116.59,112.11,Open
856,3731.534329835693,2098.8511560977886,600.323152580637,9702.936971537709,0.0,0.0,0.0,0.0,114.31,127.9,127.14,116.59,112.11,Open
857,3888.555334634225,2304.9342399757197,900.1718044485814,10319.889821993092,0.0,0.0,0.0,0.0,114.31,127.9,127.14,116.59,112.11,Open
858,3925.2792507742943,2363.8981418488197,1035.6233758477422,11027.791920637124,0.0,0.0,0.0,0.0,114.31,127.9,127.14,116.59,112.11,Open
859,3810.4806912518375,2219.9976110455527,884.5926385632323,10920.525898996104,0.0,0.0,0.0,0.0,114.34,127.48,126.25,115.75,111.22,Open
860,3687.63550372547,2056.204027677062,647.3735746590585,10160.901863682491,0.0,0.0,0.0,0.0,114.34,127.48,126.25,115.75,111.22,Open
861,3723.9123849764337,2101.376903221238,594.8916786779974,9698.44427090219,0.0,0.0,0.0,0.0,114.34,127.48,126.25,115.75,111.22,Open
862,3894.38913993706,2323.12855996234,900.2835631708579,10319.040455703793,0.0,0.0,0.0,0.0,114.34,127.48,126.25,115.75,111.22,Open
863,3921.993544339364,2366.6474064168224,1029.4319426336222,11030.831757883045,0.0,0.0,0.0,0.0,114.34,127.48,126.25,115.75,111.22,Open
864,3795.952057355888,2209.3358289403714,877.5518390598106,10925.39857928736,0.0,0.0,0.0,0.0,114.34,127.48,126.25,115.75,111.22,Open
865,3668.4130034939058,2049.4538008515597,642.970281001363,10160.074849137647,0.0,0.0,0.0,0.0,114.34,127.48,126.25,115.75,111.22,Open
866,3727.756885022746,2113.9832870940313,598.6020682575785,9692.901038277274,0.0,0.0,0.0,0.0,114.34,127.48,126.25,115.75,111.22,Open
867,3905.2744394867946,2337.344269435915,910.1406824756484,10319.0851591927,0.0,0.0,0.0,0.0,114.34,127.48,126.25,115.75,111.22,Open
868,3919.132521049085,2367.9661593396854,1032.1812072016248,11037.023191097163,0.0,0.0,0.0,0.0,114.34,127.48,126.25,115.75,111.22,Open
869,3783.546839183192,2205.9383637831647,864.8783999536515,10928.01373338863,0.0,0.0,0.0,0.0,114.34,127.48,126.25,115.75,111.22,Open
870,3667.5859889490594,2054.6841090541016,637.8293797766423,10157.258529336275,0.0,0.0,0.0,0.0,114.34,127.48,126.25,115.75,111.22,Open
871,3720.984306452788,2117.671324929157,595.6516379894779,9688.117764963838,0.0,0.0,0.0,0.0,114.34,127.48,126.25,115.75,111.22,Open
872,3893.360959692116,2335.2879089460266,901.1105777157044,10318.347551625677,0.0,0.0,0.0,0.0,114.34,127.48,126.25,115.75,111.22,Open
873,3917.389084981571,2372.883543119853,1028.1355414552145,11043.974583622765,0.0,0.0,0.0,0.0,114.34,127.48,126.25,115.75,111.22,Open
874,3789.5818101861255,2221.2716604795055,873.9308564580508,10935.792140459078,0.0,0.0,0.0,0.0,114.34,127.48,126.25,115.75,111.22,Open
875,3657.795924877634,2056.427545121616,637.6505658209999,10154.57632000164,0.0,0.0,0.0,0.0,113.5,127.88,127.72,116.79,111.88,Open
876,3714.032913927187,2122.320487775861,597.1939083568941,9682.954511994662,0.0,0.0,0.0,0.0,113.5,127.88,127.72,116.79,111.88,Open
877,3881.268665941795,2331.8680920443644,896.6625805690982,10317.073502191724,0.0,0.0,0.0,0.0,113.5,127.88,127.72,116.79,111.88,Open
878,3914.550413435747,2375.56575245449,1030.370715900745,11048.914319147389,0.0,0.0,0.0,0.0,113.5,127.88,127.72,116.79,111.88,Open
879,3786.8325456181224,2228.2007012606505,873.796745991319,10939.100198638464,0.0,0.0,0.0,0.0,113.5,127.88,127.72,116.79,111.88,Open
880,3639.5121979131936,2054.54999858737,627.3687633715587,10147.96020364287,0.0,0.0,0.0,0.0,113.5,127.88,127.72,116.79,111.88,Open
881,3698.721968975302,2118.319525518361,583.2240680723272,9676.003119469062,0.0,0.0,0.0,0.0,113.5,127.88,127.72,116.79,111.88,Open
882,3889.605866623625,2344.4521241727025,902.4293306385672,10329.501072108877,0.0,0.0,0.0,0.0,113.5,127.88,127.72,116.79,111.88,Open
883,3922.82055888421,2386.5404589820455,1030.9965647454935,11057.609147740504,0.0,0.0,0.0,0.0,113.5,127.88,127.72,116.79,111.88,Open
884,3783.1221560385416,2226.770189615511,867.0018156769056,10940.59776551697,0.0,0.0,0.0,0.0,113.5,127.88,127.72,116.79,111.88,Open
885,3646.3294799720625,2064.809449292356,626.4746935933464,10143.065171607155,0.0,0.0,0.0,0.0,113.5,127.88,127.72,116.79,111.88,Open
886,3687.434338025372,2114.899708616699,582.1958878273831,9669.67757578821,0.0,0.0,0.0,0.0,113.5,127.88,127.72,116.79,111.88,Open
887,3892.1763172359847,2353.1693045102725,911.7053045875198,10342.018049003846,0.0,0.0,0.0,0.0,113.5,127.88,127.72,116.79,111.88,Open
888,3908.5601459217246,2381.2207438016826,1020.2006721735804,11060.336060564048,0.0,0.0,0.0,0.0,113.5,127.88,127.72,116.79,111.88,Open
889,3767.542990153193,2217.6506778777457,855.4236120490566,10935.658029992346,0.0,0.0,0.0,0.0,113.5,127.88,127.72,116.79,111.88,Open
890,3641.657965380903,2068.4974871274817,625.3124028816704,10134.035066847217,0.0,0.0,0.0,0.0,113.5,127.88,127.72,116.79,111.88,Open
891,3707.550908035149,2142.99585139702,600.323152580637,9665.497799575069,0.0,0.0,0.0,0.0,113.5,127.88,127.72,116.79,111.88,Open
892,3889.851735812633,2361.595912169923,910.5206621313883,10340.788703058804,0.0,0.0,0.0,0.0,113.5,127.88,127.72,116.79,111.88,Open
893,3889.717625345901,2372.972950097674,1005.8508522332731,11061.744220464734,0.0,0.0,0.0,0.0,113.5,127.88,127.72,116.79,111.88,Open
894,3744.1183619640306,2208.508814395525,840.1573705860819,10935.523919525614,0.0,0.0,0.0,0.0,113.5,127.88,127.72,116.79,111.88,Open
895,3632.0243635206657,2071.64908309568,621.2443853908045,10132.24692729079,0.0,0.0,0.0,0.0,113.5,127.88,127.72,116.79,111.88,Open
896,3696.844422441056,2144.404011297704,588.9684663973411,9658.144075649272,0.0,0.0,0.0,0.0,113.5,127.88,127.72,116.79,111.88,Open
897,3888.175354978485,2366.5579994390014,907.570231863288,10331.959763998955,0.0,0.0,0.0,0.0,113.5,127.88,127.72,116.79,111.88,Open
898,3904.358017964127,2392.597781729434,1017.4067041166668,11065.745182722234,0.0,0.0,0.0,0.0,113.5,127.88,127.72,116.79,111.88,Open
899,3754.556626624659,2224.825587847899,847.8910741676182,10937.848500948969,0.0,0.0,0.0,0.0,113.5,127.88,127.72,116.79,111.88,Open
900,3613.4500638783056,2066.061146981853,608.4815393068242,10128.849462133585,0.0,0.0,0.0,0.0,113.85,127.24,125.4,114.94,110.44,Open
901,3662.668605168891,2127.5731477228583,567.9801783538078,9653.561968035934,0.0,0.0,0.0,0.0,113.85,127.24,125.4,114.94,110.44,Open
902,3871.545657103736,2361.573560425468,900.4176736375897,10323.33199063921,0.0,0.0,0.0,0.0,113.85,127.24,125.4,114.94,110.44,Open
903,3910.907079089532,2405.42768304678,1025.1851111871138,11068.71796473479,0.0,0.0,0.0,0.0,113.85,127.24,125.4,114.94,110.44,Open
904,3757.507056892759,2238.34839324336,850.8862079246293,10942.676477751313,0.0,0.0,0.0,0.0,113.85,127.24,125.4,114.94,110.44,Open
905,3596.5521450700935,2060.316748656839,596.8362804456092,10127.396598743988,0.0,0.0,0.0,0.0,113.85,127.24,125.4,114.94,110.44,Open
906,3668.2565412827184,2139.061944372886,571.6235127000228,9654.456037814143,0.0,0.0,0.0,0.0,113.85,127.24,125.4,114.94,110.44,Open
907,3863.2308081663623,2364.211066271194,892.3710456336792,10321.99088597189,0.0,0.0,0.0,0.0,113.85,127.24,125.4,114.94,110.44,Open
908,3902.5028231743368,2406.455863291724,1021.206500674069,11071.690746747345,0.0,0.0,0.0,0.0,113.85,127.24,125.4,114.94,110.44,Open
909,3763.1620482399526,2249.501913726558,852.2273125919477,10946.6327365199,0.0,0.0,0.0,0.0,113.85,127.24,125.4,114.94,110.44,Open
910,3605.8728225079567,2078.7345860880123,605.4864055498131,10125.206127787367,0.0,0.0,0.0,0.0,113.85,127.24,125.4,114.94,110.44,Open
911,3657.8182766220903,2136.960880394087,568.4942684762798,9652.332622090891,0.0,0.0,0.0,0.0,113.85,127.24,125.4,114.94,110.44,Open
912,3861.129744187563,2365.3510052384145,888.6606560540982,10325.99184822939,0.0,0.0,0.0,0.0,113.85,127.24,125.4,114.94,110.44,Open
913,3902.9722098078983,2408.534575526068,1016.4902825939992,11078.597435784037,0.0,0.0,0.0,0.0,113.85,127.24,125.4,114.94,110.44,Open
914,3753.8190190576343,2244.5621782019352,847.8463706787074,10948.242062120684,0.0,0.0,0.0,0.0,113.85,127.24,125.4,114.94,110.44,Open
915,3602.2294881617413,2076.7899843204004,604.7935014716985,10124.401464986977,0.0,0.0,0.0,0.0,113.85,127.24,125.4,114.94,110.44,Open
